Data from Boltaron_Units14_00001.txt Node
Date: Fri Apr 03 15:59:32 CEST 2015
User: User
Spectrometer: NQ51A0689
Autoset integration time: false
Trigger mode: 0
Integration Time (sec): 1.000000E0
Scans to average: 1
Nonlinearity correction enabled: false
Boxcar width: 2
Stray light correction enabled: false
XAxis mode: Wavelengths
Stop averaging: false
Storing dark spectrum: false
Number of Pixels in Spectrum: 512
>>>>>Begin Spectral Data<<<<<
899.175	0E0
900.806	0E0
902.437	0E0
904.067	0E0
905.698	0E0
907.328	0E0
908.958	0E0
910.588	0E0
912.218	0E0
913.847	0E0
915.477	1.49092E-4
917.106	1.02567E-4
918.735	1.03064E-4
920.364	23.5187E-6
921.993	1.21013E-4
923.621	30.1695E-6
925.25	1.69226E-4
926.878	1.06569E-4
928.506	2.51052E-4
930.134	3.24153E-4
931.762	4.00913E-4
933.389	4.0524E-4
935.016	6.13356E-4
936.644	6.04444E-4
938.271	6.1151E-4
939.897	6.50076E-4
941.524	7.04167E-4
943.151	5.50246E-4
944.777	6.9072E-4
946.403	6.19448E-4
948.029	8.4223E-4
949.655	7.17382E-4
951.28	7.9492E-4
952.906	6.785E-4
954.531	8.77491E-4
956.156	8.22159E-4
957.781	8.49268E-4
959.406	9.80352E-4
961.03	10.671E-4
962.655	10.8382E-4
964.279	10.8671E-4
965.903	13.445E-4
967.527	13.0267E-4
969.15	13.2722E-4
970.774	12.9615E-4
972.397	12.5793E-4
974.02	12.3306E-4
975.643	11.7695E-4
977.266	13.8413E-4
978.889	14.5691E-4
980.511	14.4717E-4
982.133	14.5506E-4
983.756	15.407E-4
985.378	14.211E-4
986.999	14.6413E-4
988.621	15.3459E-4
990.242	16.0124E-4
991.864	16.6227E-4
993.485	16.6043E-4
995.105	17.4978E-4
996.726	17.9426E-4
998.347	18.9729E-4
999.967	18.4314E-4
1001.587	19.3931E-4
1003.207	18.1984E-4
1004.827	18.0095E-4
1006.447	16.9256E-4
1008.066	18.4462E-4
1009.686	17.8035E-4
1011.305	18.1522E-4
1012.924	18.276E-4
1014.543	17.9157E-4
1016.161	17.3151E-4
1017.78	16.5104E-4
1019.398	16.7399E-4
1021.016	17.0324E-4
1022.634	18.7936E-4
1024.252	19.3078E-4
1025.869	19.6377E-4
1027.487	20.4509E-4
1029.104	20.0837E-4
1030.721	18.8765E-4
1032.338	18.6361E-4
1033.954	19.5989E-4
1035.571	18.9304E-4
1037.187	20.3627E-4
1038.803	19.9108E-4
1040.419	20.3114E-4
1042.035	19.9436E-4
1043.651	19.9329E-4
1045.266	19.3221E-4
1046.882	18.643E-4
1048.497	19.1254E-4
1050.112	17.7691E-4
1051.726	18.3094E-4
1053.341	17.6058E-4
1054.955	17.645E-4
1056.57	16.0042E-4
1058.184	16.0702E-4
1059.797	14.0495E-4
1061.411	12.9308E-4
1063.025	12.6503E-4
1064.638	11.8363E-4
1066.251	12.5964E-4
1067.864	12.8082E-4
1069.477	13.1921E-4
1071.09	13.7383E-4
1072.702	13.1349E-4
1074.314	13.2304E-4
1075.927	11.1417E-4
1077.539	10.6762E-4
1079.15	8.32292E-4
1080.762	8.84322E-4
1082.373	7.10886E-4
1083.985	7.73677E-4
1085.596	6.04331E-4
1087.207	6.2497E-4
1088.817	5.02887E-4
1090.428	4.65054E-4
1092.038	4.31794E-4
1093.648	4.28615E-4
1095.258	4.72445E-4
1096.868	4.23367E-4
1098.478	3.68774E-4
1100.087	2.89615E-4
1101.697	2.43788E-4
1103.306	91.7473E-6
1104.915	65.6176E-6
1106.523	0E0
1108.132	0E0
1109.74	0E0
1111.349	0E0
1112.957	0E0
1114.565	0E0
1116.172	0E0
1117.78	0E0
1119.387	0E0
1120.994	0E0
1122.601	0E0
1124.208	0E0
1125.815	0E0
1127.421	0E0
1129.028	0E0
1130.634	0E0
1132.24	0E0
1133.846	0E0
1135.451	0E0
1137.057	0E0
1138.662	0E0
1140.267	0E0
1141.872	0E0
1143.476	0E0
1145.081	0E0
1146.685	0E0
1148.29	0E0
1149.894	0E0
1151.497	0E0
1153.101	0E0
1154.704	0E0
1156.308	0E0
1157.911	0E0
1159.514	0E0
1161.117	0E0
1162.719	0E0
1164.322	0E0
1165.924	0E0
1167.526	0E0
1169.128	0E0
1170.729	0E0
1172.331	0E0
1173.932	0E0
1175.533	0E0
1177.134	0E0
1178.735	0E0
1180.336	0E0
1181.936	0E0
1183.537	0E0
1185.137	0E0
1186.737	0E0
1188.336	0E0
1189.936	0E0
1191.535	2.91279E-4
1193.135	9.30335E-4
1194.734	13.5119E-4
1196.332	17.0383E-4
1197.931	19.76E-4
1199.53	20.9805E-4
1201.128	22.3994E-4
1202.726	23.3131E-4
1204.324	23.4207E-4
1205.922	22.4418E-4
1207.519	21.5829E-4
1209.117	19.618E-4
1210.714	17.6533E-4
1212.311	14.405E-4
1213.908	12.1632E-4
1215.505	9.44535E-4
1217.101	6.20854E-4
1218.698	3.16074E-4
1220.294	1.07618E-4
1221.89	0E0
1223.486	0E0
1225.081	0E0
1226.677	0E0
1228.272	0E0
1229.867	0E0
1231.462	0E0
1233.057	0E0
1234.651	0E0
1236.246	0E0
1237.84	0E0
1239.434	0E0
1241.028	0E0
1242.622	0E0
1244.215	0E0
1245.809	0E0
1247.402	0E0
1248.995	0E0
1250.587	0E0
1252.18	0E0
1253.773	0E0
1255.365	0E0
1256.957	0E0
1258.549	0E0
1260.141	0E0
1261.732	0E0
1263.323	0E0
1264.915	0E0
1266.506	0E0
1268.096	0E0
1269.687	0E0
1271.278	0E0
1272.868	0E0
1274.458	0E0
1276.048	0E0
1277.638	0E0
1279.227	0E0
1280.817	0E0
1282.406	0E0
1283.995	0E0
1285.584	0E0
1287.172	0E0
1288.761	0E0
1290.349	0E0
1291.937	0E0
1293.525	0E0
1295.113	0E0
1296.701	0E0
1298.288	0E0
1299.875	0E0
1301.462	0E0
1303.049	0E0
1304.636	0E0
1306.223	0E0
1307.809	0E0
1309.395	0E0
1310.981	0E0
1312.567	0E0
1314.153	0E0
1315.738	0E0
1317.323	0E0
1318.908	0E0
1320.493	0E0
1322.078	0E0
1323.663	0E0
1325.247	0E0
1326.831	0E0
1328.415	0E0
1329.999	0E0
1331.583	0E0
1333.166	0E0
1334.749	0E0
1336.333	0E0
1337.915	0E0
1339.498	0E0
1341.081	0E0
1342.663	0E0
1344.245	0E0
1345.827	0E0
1347.409	0E0
1348.991	0E0
1350.572	0E0
1352.154	0E0
1353.735	0E0
1355.316	0E0
1356.897	0E0
1358.477	0E0
1360.058	0E0
1361.638	0E0
1363.218	0E0
1364.798	0E0
1366.377	0E0
1367.957	0E0
1369.536	0E0
1371.115	0E0
1372.694	0E0
1374.273	0E0
1375.852	0E0
1377.43	0E0
1379.008	0E0
1380.587	0E0
1382.164	0E0
1383.742	0E0
1385.32	0E0
1386.897	0E0
1388.474	0E0
1390.051	0E0
1391.628	0E0
1393.205	0E0
1394.781	0E0
1396.357	7.01744E-4
1397.933	10.9189E-4
1399.509	5.38433E-4
1401.085	7.90034E-4
1402.66	7.14871E-4
1404.236	0E0
1405.811	0E0
1407.386	0E0
1408.961	0E0
1410.535	0E0
1412.11	5.68097E-4
1413.684	21.6965E-4
1415.258	40.5803E-4
1416.832	58.3387E-4
1418.406	72.1814E-4
1419.979	78.6648E-4
1421.553	75.4009E-4
1423.126	64.4103E-4
1424.699	50.3391E-4
1426.272	38.1795E-4
1427.844	30.1927E-4
1429.417	29.6976E-4
1430.989	35.8442E-4
1432.561	45.5712E-4
1434.133	57.0614E-4
1435.705	67.5329E-4
1437.276	74.4115E-4
1438.848	76.5622E-4
1440.419	73.5689E-4
1441.99	69.6773E-4
1443.561	68.8342E-4
1445.131	73.9977E-4
1446.702	84.8267E-4
1448.272	1.00954E-2
1449.842	1.13469E-2
1451.412	1.16944E-2
1452.982	1.09957E-2
1454.551	96.0217E-4
1456.121	81.7163E-4
1457.69	74.9621E-4
1459.259	80.8898E-4
1460.828	90.4522E-4
1462.396	96.5019E-4
1463.965	92.4395E-4
1465.533	78.1883E-4
1467.101	53.9915E-4
1468.669	30.4028E-4
1470.237	12.1086E-4
1471.804	1.40136E-4
1473.372	0E0
1474.939	0E0
1476.506	0E0
1478.073	0E0
1479.639	0E0
1481.206	0E0
1482.772	0E0
1484.338	0E0
1485.904	0E0
1487.47	0E0
1489.035	0E0
1490.601	0E0
1492.166	0E0
1493.731	0E0
1495.296	0E0
1496.86	0E0
1498.425	0E0
1499.989	0E0
1501.553	0E0
1503.117	44.0106E-6
1504.681	3.37831E-4
1506.244	8.82832E-4
1507.808	12.2417E-4
1509.371	18.2229E-4
1510.934	24.6992E-4
1512.497	31.0037E-4
1514.059	36.7301E-4
1515.622	43.0364E-4
1517.184	47.4557E-4
1518.746	50.7011E-4
1520.308	53.3556E-4
1521.87	54.665E-4
1523.431	53.9021E-4
1524.993	53.1386E-4
1526.554	53.4914E-4
1528.115	52.5196E-4
1529.676	52.9279E-4
1531.236	55.0514E-4
1532.797	56.9824E-4
1534.357	58.4028E-4
1535.917	60.8414E-4
1537.477	63.0709E-4
1539.037	65.213E-4
1540.596	68.3246E-4
1542.155	70.9595E-4
1543.715	74.5172E-4
1545.273	77.5965E-4
1546.832	81.6449E-4
1548.391	83.9227E-4
1549.949	85.3121E-4
1551.508	85.5253E-4
1553.066	84.6556E-4
1554.623	81.7148E-4
1556.181	79.2098E-4
1557.739	76.7262E-4
1559.296	73.4156E-4
1560.853	70.0976E-4
1562.41	68.1553E-4
1563.967	65.7813E-4
1565.523	64.5513E-4
1567.08	63.3504E-4
1568.636	63.6534E-4
1570.192	62.5357E-4
1571.748	61.8431E-4
1573.304	60.0439E-4
1574.859	60.0379E-4
1576.414	59.1445E-4
1577.969	59.4339E-4
1579.524	59.7535E-4
1581.079	60.1981E-4
1582.634	60.5455E-4
1584.188	59.4428E-4
1585.742	59.6012E-4
1587.296	58.6223E-4
1588.85	59.3781E-4
1590.404	59.9388E-4
1591.957	61.9158E-4
1593.51	62.1074E-4
1595.064	62.7805E-4
1596.616	62.3602E-4
1598.169	61.5525E-4
1599.722	60.7994E-4
1601.274	59.5513E-4
1602.826	59.2828E-4
1604.378	57.6971E-4
1605.93	57.2839E-4
1607.482	55.434E-4
1609.033	55.4584E-4
1610.584	54.6673E-4
1612.135	55.6933E-4
1613.686	54.3362E-4
1615.237	55.6434E-4
1616.787	55.1501E-4
1618.338	55.6669E-4
1619.888	54.7052E-4
1621.438	55.4238E-4
1622.988	55.1305E-4
1624.537	55.542E-4
1626.087	55.0353E-4
1627.636	55.5569E-4
1629.185	56.474E-4
1630.734	56.9338E-4
1632.282	58.6902E-4
1633.831	58.9079E-4
1635.379	60.4725E-4
1636.927	60.0945E-4
1638.475	60.9236E-4
1640.023	59.8367E-4
1641.571	60.9702E-4
1643.118	60.1083E-4
1644.665	58.7062E-4
1646.212	56.3333E-4
1647.759	53.6479E-4
1649.306	49.719E-4
1650.852	44.0421E-4
1652.398	38.6863E-4
1653.944	33.5494E-4
1655.49	24.4187E-4
1657.036	19.8026E-4
1658.582	11.125E-4
1660.127	7.57323E-4
1661.672	0E0
1663.217	0E0
1664.762	0E0
1666.306	0E0
1667.851	0E0
1669.395	0E0
1670.939	0E0
1672.483	0E0
1674.027	0E0
1675.57	0E0
1677.113	0E0
1678.657	0E0
1680.2	0E0
1681.742	0E0
1683.285	0E0
1684.827	0E0
1686.369	0E0
1687.911	0E0
1689.453	0E0
1690.995	0E0
1692.536	0E0
1694.078	0E0
1695.619	0E0
1697.16	0E0
1698.7	0E0
1700.241	0E0
1701.781	0E0
1703.321	0E0
1704.861	0E0
1706.401	0E0
1707.941	0E0
1709.48	0E0
