Data from Boltaron_Boltaroncutout_00001.txt Node
Date: Fri Apr 03 15:59:32 CEST 2015
User: User
Spectrometer: NQ51A0689
Autoset integration time: false
Trigger mode: 0
Integration Time (sec): 1.000000E0
Scans to average: 1
Nonlinearity correction enabled: false
Boxcar width: 2
Stray light correction enabled: false
XAxis mode: Wavelengths
Stop averaging: false
Storing dark spectrum: false
Number of Pixels in Spectrum: 512
>>>>>Begin Spectral Data<<<<<
899.175	0E0
900.806	0E0
902.437	0E0
904.067	0E0
905.698	0E0
907.328	0E0
908.958	0E0
910.588	0E0
912.218	0E0
913.847	0E0
915.477	0E0
917.106	0E0
918.735	0E0
920.364	0E0
921.993	0E0
923.621	0E0
925.25	0E0
926.878	0E0
928.506	0E0
930.134	0E0
931.762	0E0
933.389	24.5963E-6
935.016	1.21551E-4
936.644	1.18971E-4
938.271	1.27681E-4
939.897	2.00975E-4
941.524	2.95677E-4
943.151	2.03722E-4
944.777	4.02144E-4
946.403	4.35158E-4
948.029	5.75361E-4
949.655	5.21392E-4
951.28	5.48643E-4
952.906	4.00001E-4
954.531	3.81888E-4
956.156	2.86908E-4
957.781	2.80121E-4
959.406	5.20992E-4
961.03	5.52316E-4
962.655	7.25876E-4
964.279	8.25382E-4
965.903	10.4832E-4
967.527	10.6858E-4
969.15	10.991E-4
970.774	11.618E-4
972.397	11.9242E-4
974.02	10.9575E-4
975.643	11.8692E-4
977.266	13.0359E-4
978.889	12.8318E-4
980.511	12.8061E-4
982.133	13.3586E-4
983.756	12.9881E-4
985.378	11.9703E-4
986.999	12.9034E-4
988.621	13.5712E-4
990.242	13.8294E-4
991.864	14.4019E-4
993.485	16.0943E-4
995.105	15.3773E-4
996.726	16.1467E-4
998.347	17.1586E-4
999.967	16.5154E-4
1001.587	15.791E-4
1003.207	16.1817E-4
1004.827	16.1227E-4
1006.447	15.2096E-4
1008.066	15.914E-4
1009.686	15.9122E-4
1011.305	15.9616E-4
1012.924	16.1451E-4
1014.543	15.6821E-4
1016.161	16.3521E-4
1017.78	15.2525E-4
1019.398	16.3332E-4
1021.016	15.3025E-4
1022.634	17.4044E-4
1024.252	17.0394E-4
1025.869	19.2757E-4
1027.487	19.1422E-4
1029.104	19.7332E-4
1030.721	18.8571E-4
1032.338	19.284E-4
1033.954	18.8793E-4
1035.571	17.8937E-4
1037.187	19.5607E-4
1038.803	18.8024E-4
1040.419	19.7547E-4
1042.035	18.5093E-4
1043.651	19.5568E-4
1045.266	18.1304E-4
1046.882	18.1425E-4
1048.497	16.7233E-4
1050.112	17.119E-4
1051.726	17.3624E-4
1053.341	17.0631E-4
1054.955	16.4968E-4
1056.57	16.6266E-4
1058.184	16.4916E-4
1059.797	15.2017E-4
1061.411	14.806E-4
1063.025	15.0893E-4
1064.638	15.3557E-4
1066.251	15.3008E-4
1067.864	15.6317E-4
1069.477	16.14E-4
1071.09	16.6488E-4
1072.702	16.1432E-4
1074.314	17.079E-4
1075.927	15.7712E-4
1077.539	15.0475E-4
1079.15	13.4551E-4
1080.762	12.6904E-4
1082.373	11.5943E-4
1083.985	11.6737E-4
1085.596	11.3355E-4
1087.207	11.3765E-4
1088.817	10.4313E-4
1090.428	10.6467E-4
1092.038	10.0271E-4
1093.648	9.72974E-4
1095.258	10.4383E-4
1096.868	11.388E-4
1098.478	9.91848E-4
1100.087	10.233E-4
1101.697	10.1091E-4
1103.306	9.7173E-4
1104.915	8.36921E-4
1106.523	7.92207E-4
1108.132	6.66948E-4
1109.74	5.82159E-4
1111.349	4.90322E-4
1112.957	4.27864E-4
1114.565	3.31766E-4
1116.172	3.65744E-4
1117.78	2.51381E-4
1119.387	2.13035E-4
1120.994	1.57E-4
1122.601	2.35657E-4
1124.208	1.10883E-4
1125.815	0E0
1127.421	0E0
1129.028	0E0
1130.634	0E0
1132.24	0E0
1133.846	0E0
1135.451	0E0
1137.057	0E0
1138.662	0E0
1140.267	0E0
1141.872	0E0
1143.476	0E0
1145.081	0E0
1146.685	0E0
1148.29	0E0
1149.894	0E0
1151.497	0E0
1153.101	0E0
1154.704	0E0
1156.308	0E0
1157.911	0E0
1159.514	0E0
1161.117	0E0
1162.719	0E0
1164.322	0E0
1165.924	0E0
1167.526	0E0
1169.128	0E0
1170.729	0E0
1172.331	0E0
1173.932	0E0
1175.533	0E0
1177.134	0E0
1178.735	0E0
1180.336	0E0
1181.936	0E0
1183.537	0E0
1185.137	0E0
1186.737	0E0
1188.336	0E0
1189.936	0E0
1191.535	0E0
1193.135	0E0
1194.734	0E0
1196.332	0E0
1197.931	64.0759E-6
1199.53	2.59379E-4
1201.128	4.55121E-4
1202.726	6.06975E-4
1204.324	6.92962E-4
1205.922	6.66201E-4
1207.519	6.95139E-4
1209.117	6.20021E-4
1210.714	5.07459E-4
1212.311	4.02773E-4
1213.908	3.38628E-4
1215.505	2.16534E-4
1217.101	63.2654E-6
1218.698	19.2428E-6
1220.294	0E0
1221.89	0E0
1223.486	0E0
1225.081	0E0
1226.677	0E0
1228.272	0E0
1229.867	0E0
1231.462	0E0
1233.057	0E0
1234.651	0E0
1236.246	0E0
1237.84	0E0
1239.434	0E0
1241.028	0E0
1242.622	0E0
1244.215	0E0
1245.809	0E0
1247.402	0E0
1248.995	0E0
1250.587	0E0
1252.18	0E0
1253.773	0E0
1255.365	0E0
1256.957	0E0
1258.549	0E0
1260.141	0E0
1261.732	0E0
1263.323	0E0
1264.915	0E0
1266.506	0E0
1268.096	0E0
1269.687	0E0
1271.278	0E0
1272.868	0E0
1274.458	0E0
1276.048	0E0
1277.638	0E0
1279.227	0E0
1280.817	0E0
1282.406	0E0
1283.995	0E0
1285.584	0E0
1287.172	0E0
1288.761	0E0
1290.349	0E0
1291.937	0E0
1293.525	0E0
1295.113	0E0
1296.701	0E0
1298.288	0E0
1299.875	0E0
1301.462	0E0
1303.049	0E0
1304.636	0E0
1306.223	0E0
1307.809	0E0
1309.395	0E0
1310.981	0E0
1312.567	0E0
1314.153	0E0
1315.738	0E0
1317.323	0E0
1318.908	0E0
1320.493	0E0
1322.078	0E0
1323.663	0E0
1325.247	0E0
1326.831	0E0
1328.415	0E0
1329.999	0E0
1331.583	0E0
1333.166	0E0
1334.749	0E0
1336.333	0E0
1337.915	0E0
1339.498	0E0
1341.081	0E0
1342.663	0E0
1344.245	0E0
1345.827	0E0
1347.409	0E0
1348.991	0E0
1350.572	0E0
1352.154	0E0
1353.735	0E0
1355.316	0E0
1356.897	0E0
1358.477	0E0
1360.058	0E0
1361.638	0E0
1363.218	0E0
1364.798	0E0
1366.377	0E0
1367.957	0E0
1369.536	0E0
1371.115	0E0
1372.694	0E0
1374.273	0E0
1375.852	0E0
1377.43	0E0
1379.008	0E0
1380.587	0E0
1382.164	0E0
1383.742	0E0
1385.32	0E0
1386.897	0E0
1388.474	0E0
1390.051	0E0
1391.628	0E0
1393.205	0E0
1394.781	0E0
1396.357	0E0
1397.933	0E0
1399.509	0E0
1401.085	0E0
1402.66	0E0
1404.236	0E0
1405.811	0E0
1407.386	0E0
1408.961	0E0
1410.535	0E0
1412.11	0E0
1413.684	0E0
1415.258	8.07497E-4
1416.832	19.6984E-4
1418.406	29.8154E-4
1419.979	34.9131E-4
1421.553	32.9559E-4
1423.126	24.905E-4
1424.699	15.9133E-4
1426.272	7.23093E-4
1427.844	65.7455E-6
1429.417	46.6168E-6
1430.989	3.49094E-4
1432.561	9.92566E-4
1434.133	17.1176E-4
1435.705	24.92E-4
1437.276	30.4468E-4
1438.848	32.6154E-4
1440.419	31.4138E-4
1441.99	29.9216E-4
1443.561	29.3501E-4
1445.131	32.5437E-4
1446.702	40.1893E-4
1448.272	51.551E-4
1449.842	60.9576E-4
1451.412	64.738E-4
1452.982	61.0131E-4
1454.551	52.3551E-4
1456.121	42.7257E-4
1457.69	37.9564E-4
1459.259	41.6873E-4
1460.828	48.8563E-4
1462.396	53.3944E-4
1463.965	51.6667E-4
1465.533	42.9653E-4
1467.101	27.8958E-4
1468.669	12.2505E-4
1470.237	93.0409E-6
1471.804	0E0
1473.372	0E0
1474.939	0E0
1476.506	0E0
1478.073	0E0
1479.639	0E0
1481.206	0E0
1482.772	0E0
1484.338	0E0
1485.904	0E0
1487.47	0E0
1489.035	0E0
1490.601	0E0
1492.166	0E0
1493.731	0E0
1495.296	0E0
1496.86	0E0
1498.425	0E0
1499.989	0E0
1501.553	2.19457E-4
1503.117	4.32939E-4
1504.681	6.5056E-4
1506.244	9.35539E-4
1507.808	11.859E-4
1509.371	15.9E-4
1510.934	19.5988E-4
1512.497	23.5325E-4
1514.059	27.9998E-4
1515.622	32.0552E-4
1517.184	35.3026E-4
1518.746	38.8388E-4
1520.308	42.1237E-4
1521.87	43.6607E-4
1523.431	44.0699E-4
1524.993	44.1849E-4
1526.554	43.955E-4
1528.115	43.807E-4
1529.676	43.6633E-4
1531.236	45.0991E-4
1532.797	46.4656E-4
1534.357	48.2059E-4
1535.917	48.7464E-4
1537.477	50.8594E-4
1539.037	52.0604E-4
1540.596	54.3199E-4
1542.155	55.8944E-4
1543.715	58.1868E-4
1545.273	61.2819E-4
1546.832	63.5171E-4
1548.391	65.8207E-4
1549.949	66.8104E-4
1551.508	68.1349E-4
1553.066	67.1291E-4
1554.623	66.5968E-4
1556.181	64.7018E-4
1557.739	64.112E-4
1559.296	61.965E-4
1560.853	59.8625E-4
1562.41	58.9164E-4
1563.967	57.2143E-4
1565.523	56.0782E-4
1567.08	56.0114E-4
1568.636	56.0578E-4
1570.192	55.8481E-4
1571.748	55.5719E-4
1573.304	55.5623E-4
1574.859	54.5785E-4
1576.414	55.0025E-4
1577.969	55.0252E-4
1579.524	55.8686E-4
1581.079	55.6841E-4
1582.634	56.8563E-4
1584.188	57.0324E-4
1585.742	56.9739E-4
1587.296	57.3658E-4
1588.85	58.1313E-4
1590.404	58.8104E-4
1591.957	59.6503E-4
1593.51	59.9054E-4
1595.064	60.9326E-4
1596.616	60.585E-4
1598.169	61.0311E-4
1599.722	60.7544E-4
1601.274	60.5546E-4
1602.826	59.9443E-4
1604.378	58.8539E-4
1605.93	58.4457E-4
1607.482	57.9988E-4
1609.033	58.0605E-4
1610.584	56.9648E-4
1612.135	58.0885E-4
1613.686	56.7842E-4
1615.237	56.5921E-4
1616.787	55.7774E-4
1618.338	56.3564E-4
1619.888	55.61E-4
1621.438	56.4509E-4
1622.988	55.6494E-4
1624.537	56.3959E-4
1626.087	56.1051E-4
1627.636	56.3627E-4
1629.185	55.9773E-4
1630.734	57.0052E-4
1632.282	57.3794E-4
1633.831	57.2195E-4
1635.379	57.4133E-4
1636.927	58.0357E-4
1638.475	58.2835E-4
1640.023	57.9218E-4
1641.571	57.4722E-4
1643.118	57.9263E-4
1644.665	56.8913E-4
1646.212	55.0563E-4
1647.759	53.064E-4
1649.306	51.8715E-4
1650.852	47.5356E-4
1652.398	41.3586E-4
1653.944	37.2394E-4
1655.49	30.0827E-4
1657.036	23.3498E-4
1658.582	16.6986E-4
1660.127	12.8966E-4
1661.672	2.37562E-4
1663.217	0E0
1664.762	0E0
1666.306	0E0
1667.851	0E0
1669.395	0E0
1670.939	0E0
1672.483	0E0
1674.027	0E0
1675.57	0E0
1677.113	0E0
1678.657	0E0
1680.2	0E0
1681.742	0E0
1683.285	0E0
1684.827	0E0
1686.369	0E0
1687.911	0E0
1689.453	0E0
1690.995	0E0
1692.536	0E0
1694.078	0E0
1695.619	0E0
1697.16	0E0
1698.7	0E0
1700.241	0E0
1701.781	0E0
1703.321	0E0
1704.861	0E0
1706.401	0E0
1707.941	0E0
1709.48	0E0
