Data from PC_PCFThree_00001.txt Node
Date: Fri Apr 03 16:02:51 CEST 2015
User: User
Spectrometer: NQ51A0689
Autoset integration time: false
Trigger mode: 0
Integration Time (sec): 1.000000E0
Scans to average: 1
Nonlinearity correction enabled: false
Boxcar width: 2
Stray light correction enabled: false
XAxis mode: Wavelengths
Stop averaging: false
Storing dark spectrum: false
Number of Pixels in Spectrum: 512
>>>>>Begin Spectral Data<<<<<
899.175	0E0
900.806	0E0
902.437	0E0
904.067	0E0
905.698	0E0
907.328	0E0
908.958	0E0
910.588	0E0
912.218	0E0
913.847	0E0
915.477	0E0
917.106	0E0
918.735	0E0
920.364	0E0
921.993	0E0
923.621	0E0
925.25	0E0
926.878	0E0
928.506	0E0
930.134	0E0
931.762	0E0
933.389	0E0
935.016	0E0
936.644	0E0
938.271	0E0
939.897	0E0
941.524	0E0
943.151	0E0
944.777	0E0
946.403	0E0
948.029	0E0
949.655	0E0
951.28	0E0
952.906	0E0
954.531	0E0
956.156	0E0
957.781	0E0
959.406	0E0
961.03	0E0
962.655	0E0
964.279	0E0
965.903	0E0
967.527	0E0
969.15	0E0
970.774	0E0
972.397	0E0
974.02	0E0
975.643	0E0
977.266	0E0
978.889	0E0
980.511	0E0
982.133	0E0
983.756	0E0
985.378	0E0
986.999	0E0
988.621	0E0
990.242	0E0
991.864	73.8616E-6
993.485	1.04878E-4
995.105	2.09776E-4
996.726	2.69945E-4
998.347	4.25454E-4
999.967	4.65404E-4
1001.587	4.97327E-4
1003.207	5.27045E-4
1004.827	6.3166E-4
1006.447	6.09734E-4
1008.066	7.51349E-4
1009.686	8.07657E-4
1011.305	10.4175E-4
1012.924	11.5651E-4
1014.543	12.5181E-4
1016.161	13.342E-4
1017.78	14.6828E-4
1019.398	15.034E-4
1021.016	15.1832E-4
1022.634	17.4283E-4
1024.252	17.7134E-4
1025.869	19.1819E-4
1027.487	18.6988E-4
1029.104	19.8393E-4
1030.721	18.442E-4
1032.338	20.0289E-4
1033.954	20.374E-4
1035.571	21.7322E-4
1037.187	22.7758E-4
1038.803	23.7734E-4
1040.419	24.3178E-4
1042.035	25.3554E-4
1043.651	25.4547E-4
1045.266	25.8629E-4
1046.882	26.0847E-4
1048.497	26.0318E-4
1050.112	25.2913E-4
1051.726	26.6848E-4
1053.341	25.9843E-4
1054.955	27.2676E-4
1056.57	26.9999E-4
1058.184	28.1503E-4
1059.797	27.1248E-4
1061.411	27.3541E-4
1063.025	27.3863E-4
1064.638	28.7242E-4
1066.251	30.0606E-4
1067.864	31.1997E-4
1069.477	32.3998E-4
1071.09	33.3028E-4
1072.702	32.8076E-4
1074.314	33.0101E-4
1075.927	33.316E-4
1077.539	32.8542E-4
1079.15	32.7702E-4
1080.762	33.2933E-4
1082.373	33.3898E-4
1083.985	33.0024E-4
1085.596	33.8137E-4
1087.207	33.287E-4
1088.817	33.6488E-4
1090.428	33.4848E-4
1092.038	34.2157E-4
1093.648	33.9598E-4
1095.258	35.3581E-4
1096.868	36.4396E-4
1098.478	36.468E-4
1100.087	37.6493E-4
1101.697	38.1332E-4
1103.306	39.7379E-4
1104.915	39.8673E-4
1106.523	41.8897E-4
1108.132	42.8968E-4
1109.74	46.0547E-4
1111.349	47.601E-4
1112.957	49.9187E-4
1114.565	51.6338E-4
1116.172	53.913E-4
1117.78	56.7728E-4
1119.387	59.3315E-4
1120.994	63.6522E-4
1122.601	68.3042E-4
1124.208	73.6747E-4
1125.815	79.0236E-4
1127.421	85.2091E-4
1129.028	92.2271E-4
1130.634	98.8097E-4
1132.24	1.04948E-2
1133.846	1.09696E-2
1135.451	1.12432E-2
1137.057	1.11732E-2
1138.662	1.08502E-2
1140.267	1.03173E-2
1141.872	95.784E-4
1143.476	88.758E-4
1145.081	81.0222E-4
1146.685	74.4617E-4
1148.29	68.1449E-4
1149.894	61.7155E-4
1151.497	56.1499E-4
1153.101	49.4222E-4
1154.704	43.9432E-4
1156.308	36.7672E-4
1157.911	32.5547E-4
1159.514	27.0464E-4
1161.117	24.2033E-4
1162.719	20.6545E-4
1164.322	18.4989E-4
1165.924	15.6655E-4
1167.526	14.0298E-4
1169.128	12.2075E-4
1170.729	10.153E-4
1172.331	9.87426E-4
1173.932	9.21205E-4
1175.533	9.7913E-4
1177.134	9.64298E-4
1178.735	11.3185E-4
1180.336	11.9544E-4
1181.936	14.3054E-4
1183.537	16.472E-4
1185.137	21.3585E-4
1186.737	25.8237E-4
1188.336	31.0666E-4
1189.936	34.501E-4
1191.535	36.2234E-4
1193.135	34.6116E-4
1194.734	30.9026E-4
1196.332	25.7685E-4
1197.931	20.3211E-4
1199.53	14.6823E-4
1201.128	12.6288E-4
1202.726	11.3256E-4
1204.324	10.7658E-4
1205.922	11.3786E-4
1207.519	12.6698E-4
1209.117	11.5366E-4
1210.714	11.8099E-4
1212.311	12.4054E-4
1213.908	12.5631E-4
1215.505	12.9334E-4
1217.101	14.3428E-4
1218.698	14.7937E-4
1220.294	15.9377E-4
1221.89	16.5047E-4
1223.486	18.4188E-4
1225.081	18.4082E-4
1226.677	19.7832E-4
1228.272	20.0723E-4
1229.867	21.0527E-4
1231.462	20.5352E-4
1233.057	20.4328E-4
1234.651	19.9047E-4
1236.246	19.6464E-4
1237.84	19.3396E-4
1239.434	19.1767E-4
1241.028	19.7342E-4
1242.622	19.5615E-4
1244.215	19.4995E-4
1245.809	19.1822E-4
1247.402	18.7708E-4
1248.995	18.9395E-4
1250.587	18.3199E-4
1252.18	18.4822E-4
1253.773	18.3093E-4
1255.365	19.0175E-4
1256.957	19.1333E-4
1258.549	19.4364E-4
1260.141	18.4846E-4
1261.732	18.7523E-4
1263.323	18.232E-4
1264.915	18.4667E-4
1266.506	18.6592E-4
1268.096	19.3439E-4
1269.687	19.0611E-4
1271.278	18.3549E-4
1272.868	17.8566E-4
1274.458	17.88E-4
1276.048	18.379E-4
1277.638	18.6407E-4
1279.227	18.4677E-4
1280.817	17.988E-4
1282.406	17.959E-4
1283.995	17.4306E-4
1285.584	17.8096E-4
1287.172	19.0235E-4
1288.761	19.893E-4
1290.349	20.1591E-4
1291.937	20.3485E-4
1293.525	20.3749E-4
1295.113	19.9436E-4
1296.701	19.3877E-4
1298.288	18.8563E-4
1299.875	18.113E-4
1301.462	17.8445E-4
1303.049	17.7823E-4
1304.636	17.9887E-4
1306.223	17.4919E-4
1307.809	18.5734E-4
1309.395	18.1557E-4
1310.981	19.1586E-4
1312.567	19.1704E-4
1314.153	20.069E-4
1315.738	19.9883E-4
1317.323	20.3989E-4
1318.908	19.6796E-4
1320.493	19.6588E-4
1322.078	19.355E-4
1323.663	18.1718E-4
1325.247	17.7701E-4
1326.831	16.1578E-4
1328.415	15.2447E-4
1329.999	14.558E-4
1331.583	14.7716E-4
1333.166	13.4539E-4
1334.749	13.3308E-4
1336.333	11.434E-4
1337.915	9.69157E-4
1339.498	7.83427E-4
1341.081	5.9253E-4
1342.663	3.42657E-4
1344.245	2.31304E-4
1345.827	71.2895E-6
1347.409	0E0
1348.991	0E0
1350.572	0E0
1352.154	0E0
1353.735	0E0
1355.316	0E0
1356.897	1.44321E-4
1358.477	3.08667E-4
1360.058	4.80569E-4
1361.638	4.77899E-4
1363.218	5.31699E-4
1364.798	3.54871E-4
1366.377	1.79858E-4
1367.957	0E0
1369.536	0E0
1371.115	0E0
1372.694	0E0
1374.273	0E0
1375.852	0E0
1377.43	0E0
1379.008	0E0
1380.587	0E0
1382.164	0E0
1383.742	0E0
1385.32	0E0
1386.897	0E0
1388.474	0E0
1390.051	0E0
1391.628	0E0
1393.205	0E0
1394.781	0E0
1396.357	0E0
1397.933	0E0
1399.509	0E0
1401.085	0E0
1402.66	0E0
1404.236	0E0
1405.811	0E0
1407.386	0E0
1408.961	0E0
1410.535	0E0
1412.11	0E0
1413.684	0E0
1415.258	0E0
1416.832	0E0
1418.406	0E0
1419.979	0E0
1421.553	0E0
1423.126	0E0
1424.699	0E0
1426.272	0E0
1427.844	0E0
1429.417	0E0
1430.989	0E0
1432.561	0E0
1434.133	0E0
1435.705	0E0
1437.276	0E0
1438.848	0E0
1440.419	0E0
1441.99	0E0
1443.561	0E0
1445.131	0E0
1446.702	0E0
1448.272	0E0
1449.842	0E0
1451.412	0E0
1452.982	0E0
1454.551	0E0
1456.121	0E0
1457.69	0E0
1459.259	0E0
1460.828	0E0
1462.396	0E0
1463.965	0E0
1465.533	0E0
1467.101	0E0
1468.669	0E0
1470.237	0E0
1471.804	0E0
1473.372	0E0
1474.939	0E0
1476.506	0E0
1478.073	0E0
1479.639	0E0
1481.206	0E0
1482.772	0E0
1484.338	0E0
1485.904	0E0
1487.47	0E0
1489.035	0E0
1490.601	0E0
1492.166	0E0
1493.731	0E0
1495.296	0E0
1496.86	0E0
1498.425	0E0
1499.989	0E0
1501.553	0E0
1503.117	0E0
1504.681	0E0
1506.244	0E0
1507.808	0E0
1509.371	0E0
1510.934	0E0
1512.497	0E0
1514.059	0E0
1515.622	0E0
1517.184	0E0
1518.746	0E0
1520.308	0E0
1521.87	0E0
1523.431	0E0
1524.993	0E0
1526.554	0E0
1528.115	0E0
1529.676	0E0
1531.236	0E0
1532.797	0E0
1534.357	0E0
1535.917	0E0
1537.477	0E0
1539.037	0E0
1540.596	0E0
1542.155	0E0
1543.715	0E0
1545.273	0E0
1546.832	0E0
1548.391	0E0
1549.949	0E0
1551.508	0E0
1553.066	0E0
1554.623	0E0
1556.181	0E0
1557.739	0E0
1559.296	0E0
1560.853	0E0
1562.41	0E0
1563.967	0E0
1565.523	0E0
1567.08	0E0
1568.636	0E0
1570.192	0E0
1571.748	0E0
1573.304	0E0
1574.859	0E0
1576.414	0E0
1577.969	0E0
1579.524	0E0
1581.079	0E0
1582.634	0E0
1584.188	0E0
1585.742	0E0
1587.296	0E0
1588.85	0E0
1590.404	0E0
1591.957	0E0
1593.51	0E0
1595.064	0E0
1596.616	0E0
1598.169	0E0
1599.722	0E0
1601.274	0E0
1602.826	0E0
1604.378	0E0
1605.93	0E0
1607.482	0E0
1609.033	0E0
1610.584	0E0
1612.135	0E0
1613.686	0E0
1615.237	0E0
1616.787	4.03704E-4
1618.338	11.84E-4
1619.888	17.6033E-4
1621.438	23.0625E-4
1622.988	27.3033E-4
1624.537	30.7402E-4
1626.087	33.7549E-4
1627.636	37.6752E-4
1629.185	44.0074E-4
1630.734	52.2209E-4
1632.282	60.9015E-4
1633.831	71.2618E-4
1635.379	80.1115E-4
1636.927	89.0536E-4
1638.475	98.2675E-4
1640.023	1.09836E-2
1641.571	1.21818E-2
1643.118	1.38343E-2
1644.665	1.54608E-2
1646.212	1.70641E-2
1647.759	1.8442E-2
1649.306	1.95368E-2
1650.852	2.02622E-2
1652.398	2.0765E-2
1653.944	2.14932E-2
1655.49	2.21616E-2
1657.036	2.35002E-2
1658.582	2.45968E-2
1660.127	2.63857E-2
1661.672	2.74313E-2
1663.217	2.88543E-2
1664.762	2.93805E-2
1666.306	3.04136E-2
1667.851	3.0154E-2
1669.395	2.92923E-2
1670.939	2.72748E-2
1672.483	2.4513E-2
1674.027	2.0722E-2
1675.57	1.62922E-2
1677.113	1.21016E-2
1678.657	91.1813E-4
1680.2	64.3198E-4
1681.742	35.1756E-4
1683.285	27.9918E-4
1684.827	13.3795E-4
1686.369	3.87601E-4
1687.911	0E0
1689.453	0E0
1690.995	0E0
1692.536	0E0
1694.078	0E0
1695.619	0E0
1697.16	0E0
1698.7	0E0
1700.241	0E0
1701.781	0E0
1703.321	0E0
1704.861	0E0
1706.401	0E0
1707.941	0E0
1709.48	0E0
