Data from PC_PCCarbonlookclearregion_00001.txt Node
Date: Fri Apr 03 16:02:51 CEST 2015
User: User
Spectrometer: NQ51A0689
Autoset integration time: false
Trigger mode: 0
Integration Time (sec): 1.000000E0
Scans to average: 1
Nonlinearity correction enabled: false
Boxcar width: 2
Stray light correction enabled: false
XAxis mode: Wavelengths
Stop averaging: false
Storing dark spectrum: false
Number of Pixels in Spectrum: 512
>>>>>Begin Spectral Data<<<<<
899.175	0E0
900.806	0E0
902.437	0E0
904.067	0E0
905.698	0E0
907.328	0E0
908.958	0E0
910.588	0E0
912.218	0E0
913.847	0E0
915.477	0E0
917.106	0E0
918.735	0E0
920.364	0E0
921.993	0E0
923.621	0E0
925.25	0E0
926.878	0E0
928.506	0E0
930.134	0E0
931.762	0E0
933.389	0E0
935.016	0E0
936.644	0E0
938.271	0E0
939.897	0E0
941.524	0E0
943.151	0E0
944.777	0E0
946.403	0E0
948.029	0E0
949.655	0E0
951.28	0E0
952.906	0E0
954.531	0E0
956.156	0E0
957.781	0E0
959.406	0E0
961.03	0E0
962.655	0E0
964.279	0E0
965.903	0E0
967.527	0E0
969.15	0E0
970.774	0E0
972.397	0E0
974.02	0E0
975.643	0E0
977.266	0E0
978.889	0E0
980.511	0E0
982.133	10.4565E-6
983.756	0E0
985.378	0E0
986.999	0E0
988.621	0E0
990.242	1.20334E-4
991.864	2.05638E-4
993.485	2.30891E-4
995.105	2.87998E-4
996.726	2.17546E-4
998.347	2.13209E-4
999.967	92.8059E-6
1001.587	1.74419E-4
1003.207	29.0725E-6
1004.827	1.62581E-4
1006.447	1.02752E-4
1008.066	2.83033E-4
1009.686	2.11152E-4
1011.305	3.1058E-4
1012.924	2.33436E-4
1014.543	2.94075E-4
1016.161	2.69656E-4
1017.78	3.01978E-4
1019.398	3.90659E-4
1021.016	3.39944E-4
1022.634	4.05062E-4
1024.252	3.18336E-4
1025.869	4.42143E-4
1027.487	4.1768E-4
1029.104	5.25745E-4
1030.721	5.31204E-4
1032.338	6.66982E-4
1033.954	6.27167E-4
1035.571	6.47428E-4
1037.187	7.26505E-4
1038.803	7.46078E-4
1040.419	7.89981E-4
1042.035	8.2198E-4
1043.651	8.08752E-4
1045.266	8.99645E-4
1046.882	7.25812E-4
1048.497	8.40633E-4
1050.112	7.75529E-4
1051.726	8.2484E-4
1053.341	7.01167E-4
1054.955	8.11178E-4
1056.57	7.08461E-4
1058.184	8.05811E-4
1059.797	7.56249E-4
1061.411	7.41513E-4
1063.025	8.14662E-4
1064.638	8.03627E-4
1066.251	8.16432E-4
1067.864	9.36344E-4
1069.477	10.3181E-4
1071.09	11.2306E-4
1072.702	11.4008E-4
1074.314	12.07E-4
1075.927	10.4073E-4
1077.539	10.6129E-4
1079.15	9.38299E-4
1080.762	9.63626E-4
1082.373	8.91378E-4
1083.985	9.74951E-4
1085.596	9.81544E-4
1087.207	10.609E-4
1088.817	9.90364E-4
1090.428	10.8405E-4
1092.038	11.7161E-4
1093.648	12.0972E-4
1095.258	12.8055E-4
1096.868	14.352E-4
1098.478	13.4633E-4
1100.087	13.4743E-4
1101.697	12.505E-4
1103.306	12.3119E-4
1104.915	12.038E-4
1106.523	12.7672E-4
1108.132	12.8193E-4
1109.74	13.9675E-4
1111.349	13.9607E-4
1112.957	13.2811E-4
1114.565	13.8101E-4
1116.172	14.6322E-4
1117.78	15.307E-4
1119.387	16.2991E-4
1120.994	18.0756E-4
1122.601	19.1151E-4
1124.208	19.9233E-4
1125.815	19.5184E-4
1127.421	20.2487E-4
1129.028	20.9937E-4
1130.634	21.8288E-4
1132.24	21.7075E-4
1133.846	22.7968E-4
1135.451	23.5729E-4
1137.057	24.0454E-4
1138.662	23.0462E-4
1140.267	22.8043E-4
1141.872	21.4171E-4
1143.476	19.7282E-4
1145.081	17.1949E-4
1146.685	15.9156E-4
1148.29	14.8318E-4
1149.894	13.4797E-4
1151.497	13.4299E-4
1153.101	12.1008E-4
1154.704	11.2989E-4
1156.308	9.29474E-4
1157.911	8.66261E-4
1159.514	6.02924E-4
1161.117	5.11918E-4
1162.719	4.04168E-4
1164.322	3.10217E-4
1165.924	1.79907E-4
1167.526	98.7004E-6
1169.128	44.7268E-6
1170.729	0E0
1172.331	0E0
1173.932	0E0
1175.533	11.4159E-6
1177.134	0E0
1178.735	64.0567E-6
1180.336	0E0
1181.936	0E0
1183.537	0E0
1185.137	18.6263E-6
1186.737	48.3858E-6
1188.336	2.65909E-4
1189.936	3.11948E-4
1191.535	4.52899E-4
1193.135	6.21981E-4
1194.734	5.70341E-4
1196.332	5.67137E-4
1197.931	6.20432E-4
1199.53	5.39408E-4
1201.128	5.22208E-4
1202.726	5.93713E-4
1204.324	6.38799E-4
1205.922	6.45427E-4
1207.519	7.29161E-4
1209.117	6.64337E-4
1210.714	7.68108E-4
1212.311	7.62323E-4
1213.908	8.53703E-4
1215.505	9.21382E-4
1217.101	9.842E-4
1218.698	9.49639E-4
1220.294	9.83354E-4
1221.89	9.58472E-4
1223.486	9.92867E-4
1225.081	10.33E-4
1226.677	11.4225E-4
1228.272	11.831E-4
1229.867	12.47E-4
1231.462	12.6049E-4
1233.057	11.3367E-4
1234.651	11.7618E-4
1236.246	11.8508E-4
1237.84	12.3494E-4
1239.434	12.1514E-4
1241.028	13.8273E-4
1242.622	13.144E-4
1244.215	13.2226E-4
1245.809	12.8471E-4
1247.402	13.0502E-4
1248.995	13.4452E-4
1250.587	12.8561E-4
1252.18	13.2485E-4
1253.773	12.9191E-4
1255.365	13.4758E-4
1256.957	12.3159E-4
1258.549	13.6463E-4
1260.141	12.5401E-4
1261.732	13.2949E-4
1263.323	12.6343E-4
1264.915	13.5392E-4
1266.506	12.9848E-4
1268.096	14.091E-4
1269.687	13.6611E-4
1271.278	13.474E-4
1272.868	12.994E-4
1274.458	13.1819E-4
1276.048	12.5909E-4
1277.638	13.6917E-4
1279.227	13.5573E-4
1280.817	13.7733E-4
1282.406	13.9692E-4
1283.995	14.4258E-4
1285.584	13.6611E-4
1287.172	14.5558E-4
1288.761	14.7456E-4
1290.349	14.4763E-4
1291.937	14.6058E-4
1293.525	15.2064E-4
1295.113	15.0943E-4
1296.701	15.4742E-4
1298.288	15.9992E-4
1299.875	15.7014E-4
1301.462	15.4485E-4
1303.049	16.0079E-4
1304.636	14.8356E-4
1306.223	14.3001E-4
1307.809	14.8355E-4
1309.395	15.0185E-4
1310.981	14.5107E-4
1312.567	15.6744E-4
1314.153	16.2898E-4
1315.738	16.303E-4
1317.323	16.4272E-4
1318.908	16.6057E-4
1320.493	16.9058E-4
1322.078	16.3204E-4
1323.663	15.2186E-4
1325.247	15.195E-4
1326.831	14.4053E-4
1328.415	13.5263E-4
1329.999	13.0585E-4
1331.583	13.6592E-4
1333.166	12.487E-4
1334.749	11.8936E-4
1336.333	11.2013E-4
1337.915	10.4627E-4
1339.498	9.25635E-4
1341.081	8.93942E-4
1342.663	7.64108E-4
1344.245	7.24666E-4
1345.827	6.77415E-4
1347.409	6.21439E-4
1348.991	4.92977E-4
1350.572	4.56414E-4
1352.154	3.40856E-4
1353.735	3.41129E-4
1355.316	2.50729E-4
1356.897	2.57824E-4
1358.477	2.17891E-4
1360.058	2.03168E-4
1361.638	1.28093E-4
1363.218	1.00661E-4
1364.798	44.8989E-6
1366.377	0E0
1367.957	0E0
1369.536	0E0
1371.115	0E0
1372.694	0E0
1374.273	0E0
1375.852	0E0
1377.43	0E0
1379.008	0E0
1380.587	0E0
1382.164	0E0
1383.742	0E0
1385.32	0E0
1386.897	0E0
1388.474	0E0
1390.051	0E0
1391.628	0E0
1393.205	0E0
1394.781	0E0
1396.357	0E0
1397.933	0E0
1399.509	0E0
1401.085	0E0
1402.66	0E0
1404.236	0E0
1405.811	0E0
1407.386	0E0
1408.961	0E0
1410.535	0E0
1412.11	0E0
1413.684	0E0
1415.258	0E0
1416.832	0E0
1418.406	0E0
1419.979	0E0
1421.553	0E0
1423.126	0E0
1424.699	0E0
1426.272	0E0
1427.844	0E0
1429.417	0E0
1430.989	0E0
1432.561	0E0
1434.133	0E0
1435.705	0E0
1437.276	0E0
1438.848	0E0
1440.419	0E0
1441.99	0E0
1443.561	0E0
1445.131	0E0
1446.702	0E0
1448.272	0E0
1449.842	0E0
1451.412	0E0
1452.982	0E0
1454.551	0E0
1456.121	0E0
1457.69	0E0
1459.259	0E0
1460.828	0E0
1462.396	0E0
1463.965	0E0
1465.533	0E0
1467.101	0E0
1468.669	0E0
1470.237	0E0
1471.804	0E0
1473.372	0E0
1474.939	0E0
1476.506	0E0
1478.073	0E0
1479.639	0E0
1481.206	0E0
1482.772	0E0
1484.338	0E0
1485.904	0E0
1487.47	0E0
1489.035	0E0
1490.601	0E0
1492.166	0E0
1493.731	0E0
1495.296	0E0
1496.86	0E0
1498.425	0E0
1499.989	0E0
1501.553	0E0
1503.117	0E0
1504.681	0E0
1506.244	0E0
1507.808	0E0
1509.371	0E0
1510.934	0E0
1512.497	0E0
1514.059	0E0
1515.622	0E0
1517.184	0E0
1518.746	0E0
1520.308	0E0
1521.87	0E0
1523.431	0E0
1524.993	0E0
1526.554	0E0
1528.115	0E0
1529.676	0E0
1531.236	0E0
1532.797	0E0
1534.357	0E0
1535.917	0E0
1537.477	0E0
1539.037	0E0
1540.596	0E0
1542.155	0E0
1543.715	0E0
1545.273	0E0
1546.832	0E0
1548.391	0E0
1549.949	0E0
1551.508	0E0
1553.066	0E0
1554.623	0E0
1556.181	0E0
1557.739	0E0
1559.296	0E0
1560.853	0E0
1562.41	0E0
1563.967	0E0
1565.523	0E0
1567.08	0E0
1568.636	0E0
1570.192	0E0
1571.748	0E0
1573.304	0E0
1574.859	0E0
1576.414	0E0
1577.969	0E0
1579.524	0E0
1581.079	0E0
1582.634	0E0
1584.188	0E0
1585.742	0E0
1587.296	0E0
1588.85	0E0
1590.404	0E0
1591.957	0E0
1593.51	0E0
1595.064	0E0
1596.616	0E0
1598.169	0E0
1599.722	0E0
1601.274	0E0
1602.826	0E0
1604.378	0E0
1605.93	0E0
1607.482	0E0
1609.033	0E0
1610.584	0E0
1612.135	0E0
1613.686	0E0
1615.237	0E0
1616.787	0E0
1618.338	0E0
1619.888	0E0
1621.438	0E0
1622.988	0E0
1624.537	0E0
1626.087	0E0
1627.636	0E0
1629.185	0E0
1630.734	0E0
1632.282	0E0
1633.831	0E0
1635.379	0E0
1636.927	0E0
1638.475	0E0
1640.023	0E0
1641.571	0E0
1643.118	0E0
1644.665	0E0
1646.212	0E0
1647.759	0E0
1649.306	58.616E-6
1650.852	1.16789E-4
1652.398	1.42325E-4
1653.944	1.37356E-4
1655.49	2.63062E-4
1657.036	5.31709E-4
1658.582	7.85392E-4
1660.127	14.1341E-4
1661.672	16.1677E-4
1663.217	20.9371E-4
1664.762	21.0312E-4
1666.306	24.0832E-4
1667.851	22.7313E-4
1669.395	24.2406E-4
1670.939	20.9669E-4
1672.483	18.9894E-4
1674.027	17.0547E-4
1675.57	11.4434E-4
1677.113	3.889E-4
1678.657	9.42172E-4
1680.2	6.78192E-4
1681.742	6.78346E-4
1683.285	11.5533E-4
1684.827	12.6134E-4
1686.369	18.8927E-4
1687.911	20.3941E-4
1689.453	19.986E-4
1690.995	19.9252E-4
1692.536	43.5232E-4
1694.078	31.5274E-4
1695.619	48.5226E-4
1697.16	63.8263E-4
1698.7	76.3463E-4
1700.241	77.7516E-4
1701.781	99.6508E-4
1703.321	1.16861E-2
1704.861	1.21677E-2
1706.401	1.26378E-2
1707.941	1.3371E-2
1709.48	1.30844E-2
