Data from PC_PCClear_00000.txt Node
Date: Fri Apr 03 16:02:51 CEST 2015
User: User
Spectrometer: NQ51A0689
Autoset integration time: false
Trigger mode: 0
Integration Time (sec): 1.000000E0
Scans to average: 1
Nonlinearity correction enabled: false
Boxcar width: 2
Stray light correction enabled: false
XAxis mode: Wavelengths
Stop averaging: false
Storing dark spectrum: false
Number of Pixels in Spectrum: 512
>>>>>Begin Spectral Data<<<<<
899.175	0E0
900.806	0E0
902.437	0E0
904.067	0E0
905.698	0E0
907.328	0E0
908.958	0E0
910.588	0E0
912.218	0E0
913.847	0E0
915.477	0E0
917.106	0E0
918.735	0E0
920.364	0E0
921.993	0E0
923.621	0E0
925.25	0E0
926.878	0E0
928.506	0E0
930.134	0E0
931.762	0E0
933.389	0E0
935.016	0E0
936.644	0E0
938.271	0E0
939.897	0E0
941.524	0E0
943.151	0E0
944.777	0E0
946.403	0E0
948.029	0E0
949.655	0E0
951.28	0E0
952.906	0E0
954.531	0E0
956.156	0E0
957.781	0E0
959.406	0E0
961.03	0E0
962.655	0E0
964.279	0E0
965.903	0E0
967.527	0E0
969.15	0E0
970.774	0E0
972.397	0E0
974.02	0E0
975.643	0E0
977.266	0E0
978.889	0E0
980.511	0E0
982.133	0E0
983.756	0E0
985.378	0E0
986.999	0E0
988.621	0E0
990.242	0E0
991.864	0E0
993.485	0E0
995.105	0E0
996.726	0E0
998.347	0E0
999.967	0E0
1001.587	0E0
1003.207	0E0
1004.827	0E0
1006.447	0E0
1008.066	0E0
1009.686	0E0
1011.305	0E0
1012.924	0E0
1014.543	0E0
1016.161	5.28527E-6
1017.78	24.9226E-6
1019.398	81.7773E-6
1021.016	1.76832E-4
1022.634	3.40898E-4
1024.252	1.6765E-4
1025.869	2.18794E-4
1027.487	1.45896E-4
1029.104	1.41234E-4
1030.721	13.6758E-6
1032.338	1.22894E-4
1033.954	1.35227E-4
1035.571	2.58018E-4
1037.187	4.11636E-4
1038.803	4.69601E-4
1040.419	5.90668E-4
1042.035	6.72117E-4
1043.651	6.54314E-4
1045.266	6.07052E-4
1046.882	5.68061E-4
1048.497	5.87148E-4
1050.112	5.02371E-4
1051.726	5.18547E-4
1053.341	4.6283E-4
1054.955	4.69313E-4
1056.57	4.21033E-4
1058.184	4.6596E-4
1059.797	4.85916E-4
1061.411	3.82976E-4
1063.025	4.78192E-4
1064.638	4.20074E-4
1066.251	5.58729E-4
1067.864	5.41792E-4
1069.477	7.02351E-4
1071.09	6.93754E-4
1072.702	7.04915E-4
1074.314	7.11703E-4
1075.927	6.50271E-4
1077.539	6.83232E-4
1079.15	5.86741E-4
1080.762	6.11672E-4
1082.373	5.09046E-4
1083.985	6.06273E-4
1085.596	6.07293E-4
1087.207	5.94791E-4
1088.817	7.30914E-4
1090.428	7.53549E-4
1092.038	8.26445E-4
1093.648	8.2831E-4
1095.258	10.4954E-4
1096.868	10.9725E-4
1098.478	11.6164E-4
1100.087	11.8812E-4
1101.697	12.3855E-4
1103.306	12.8516E-4
1104.915	12.4694E-4
1106.523	13.5595E-4
1108.132	14.9133E-4
1109.74	16.7894E-4
1111.349	19.3063E-4
1112.957	21.0237E-4
1114.565	24.0414E-4
1116.172	25.9457E-4
1117.78	30.0204E-4
1119.387	32.6335E-4
1120.994	37.9071E-4
1122.601	42.2898E-4
1124.208	48.193E-4
1125.815	51.9039E-4
1127.421	57.4785E-4
1129.028	62.5843E-4
1130.634	67.376E-4
1132.24	71.2445E-4
1133.846	75.7694E-4
1135.451	78.2486E-4
1137.057	78.3001E-4
1138.662	77.0672E-4
1140.267	74.4972E-4
1141.872	70.0479E-4
1143.476	65.3283E-4
1145.081	60.4124E-4
1146.685	54.9762E-4
1148.29	50.5371E-4
1149.894	46.1278E-4
1151.497	41.8003E-4
1153.101	37.5002E-4
1154.704	33.882E-4
1156.308	28.8265E-4
1157.911	25.4413E-4
1159.514	22.0807E-4
1161.117	20.6172E-4
1162.719	19.5264E-4
1164.322	18.8385E-4
1165.924	18.9018E-4
1167.526	18.4951E-4
1169.128	18.9904E-4
1170.729	19.4664E-4
1172.331	20.9322E-4
1173.932	21.028E-4
1175.533	23.3508E-4
1177.134	23.3663E-4
1178.735	24.7714E-4
1180.336	25.4153E-4
1181.936	27.671E-4
1183.537	29.2326E-4
1185.137	32.6572E-4
1186.737	35.1227E-4
1188.336	39.0012E-4
1189.936	39.3515E-4
1191.535	39.9342E-4
1193.135	37.8016E-4
1194.734	33.7576E-4
1196.332	28.1011E-4
1197.931	23.2373E-4
1199.53	17.2636E-4
1201.128	14.3804E-4
1202.726	12.2462E-4
1204.324	10.9108E-4
1205.922	9.99091E-4
1207.519	9.70167E-4
1209.117	8.0287E-4
1210.714	6.96119E-4
1212.311	5.75667E-4
1213.908	5.71579E-4
1215.505	5.42621E-4
1217.101	5.88704E-4
1218.698	5.39285E-4
1220.294	6.07983E-4
1221.89	5.72348E-4
1223.486	6.18419E-4
1225.081	5.71794E-4
1226.677	6.48181E-4
1228.272	6.6051E-4
1229.867	7.16978E-4
1231.462	6.44856E-4
1233.057	6.24412E-4
1234.651	5.81213E-4
1236.246	5.53325E-4
1237.84	4.53282E-4
1239.434	4.89177E-4
1241.028	4.17701E-4
1242.622	4.5235E-4
1244.215	3.45772E-4
1245.809	4.51085E-4
1247.402	3.97109E-4
1248.995	5.09005E-4
1250.587	3.97758E-4
1252.18	4.59284E-4
1253.773	3.35725E-4
1255.365	3.53609E-4
1256.957	2.72764E-4
1258.549	3.0564E-4
1260.141	2.62958E-4
1261.732	2.91847E-4
1263.323	2.4649E-4
1264.915	2.14515E-4
1266.506	2.6325E-4
1268.096	2.04096E-4
1269.687	2.14326E-4
1271.278	1.80734E-4
1272.868	2.1192E-4
1274.458	1.63145E-4
1276.048	2.1284E-4
1277.638	2.47473E-4
1279.227	2.06873E-4
1280.817	1.61539E-4
1282.406	1.40924E-4
1283.995	1.65046E-4
1285.584	1.4333E-4
1287.172	2.27143E-4
1288.761	3.17787E-4
1290.349	3.77382E-4
1291.937	3.79621E-4
1293.525	4.88854E-4
1295.113	5.05435E-4
1296.701	4.61053E-4
1298.288	4.46269E-4
1299.875	4.37575E-4
1301.462	3.71464E-4
1303.049	3.74542E-4
1304.636	3.60105E-4
1306.223	3.20561E-4
1307.809	3.56567E-4
1309.395	3.34763E-4
1310.981	3.52749E-4
1312.567	4.85092E-4
1314.153	5.93098E-4
1315.738	6.75214E-4
1317.323	7.2156E-4
1318.908	7.06891E-4
1320.493	6.73824E-4
1322.078	6.22518E-4
1323.663	5.37928E-4
1325.247	4.93709E-4
1326.831	4.54289E-4
1328.415	3.92405E-4
1329.999	3.47115E-4
1331.583	3.78458E-4
1333.166	3.62152E-4
1334.749	3.44528E-4
1336.333	3.48334E-4
1337.915	2.68474E-4
1339.498	1.48447E-4
1341.081	51.0368E-6
1342.663	25.5426E-6
1344.245	0E0
1345.827	16.8114E-6
1347.409	60.418E-6
1348.991	1.18845E-4
1350.572	1.89611E-4
1352.154	3.70531E-4
1353.735	5.21766E-4
1355.316	7.33238E-4
1356.897	9.9658E-4
1358.477	12.2432E-4
1360.058	13.4918E-4
1361.638	14.854E-4
1363.218	15.5049E-4
1364.798	15.5126E-4
1366.377	14.4274E-4
1367.957	13.9702E-4
1369.536	13.0318E-4
1371.115	12.5814E-4
1372.694	11.937E-4
1374.273	10.4402E-4
1375.852	8.10474E-4
1377.43	5.36168E-4
1379.008	91.0652E-6
1380.587	0E0
1382.164	0E0
1383.742	0E0
1385.32	0E0
1386.897	0E0
1388.474	0E0
1390.051	0E0
1391.628	0E0
1393.205	0E0
1394.781	0E0
1396.357	0E0
1397.933	0E0
1399.509	0E0
1401.085	0E0
1402.66	0E0
1404.236	0E0
1405.811	13.0282E-6
1407.386	84.7758E-6
1408.961	1.18158E-4
1410.535	48.1976E-6
1412.11	18.7266E-6
1413.684	0E0
1415.258	0E0
1416.832	0E0
1418.406	0E0
1419.979	0E0
1421.553	0E0
1423.126	0E0
1424.699	0E0
1426.272	0E0
1427.844	0E0
1429.417	0E0
1430.989	0E0
1432.561	0E0
1434.133	0E0
1435.705	0E0
1437.276	0E0
1438.848	0E0
1440.419	0E0
1441.99	0E0
1443.561	0E0
1445.131	0E0
1446.702	0E0
1448.272	0E0
1449.842	0E0
1451.412	0E0
1452.982	0E0
1454.551	0E0
1456.121	0E0
1457.69	0E0
1459.259	0E0
1460.828	0E0
1462.396	0E0
1463.965	0E0
1465.533	0E0
1467.101	0E0
1468.669	0E0
1470.237	0E0
1471.804	0E0
1473.372	0E0
1474.939	0E0
1476.506	0E0
1478.073	0E0
1479.639	0E0
1481.206	0E0
1482.772	0E0
1484.338	0E0
1485.904	0E0
1487.47	0E0
1489.035	0E0
1490.601	0E0
1492.166	0E0
1493.731	0E0
1495.296	0E0
1496.86	0E0
1498.425	0E0
1499.989	0E0
1501.553	0E0
1503.117	0E0
1504.681	0E0
1506.244	0E0
1507.808	0E0
1509.371	0E0
1510.934	0E0
1512.497	0E0
1514.059	0E0
1515.622	0E0
1517.184	0E0
1518.746	0E0
1520.308	0E0
1521.87	0E0
1523.431	0E0
1524.993	0E0
1526.554	0E0
1528.115	0E0
1529.676	0E0
1531.236	0E0
1532.797	0E0
1534.357	0E0
1535.917	0E0
1537.477	0E0
1539.037	0E0
1540.596	0E0
1542.155	0E0
1543.715	0E0
1545.273	0E0
1546.832	0E0
1548.391	0E0
1549.949	0E0
1551.508	0E0
1553.066	0E0
1554.623	0E0
1556.181	0E0
1557.739	0E0
1559.296	0E0
1560.853	0E0
1562.41	0E0
1563.967	0E0
1565.523	0E0
1567.08	0E0
1568.636	0E0
1570.192	0E0
1571.748	0E0
1573.304	0E0
1574.859	0E0
1576.414	0E0
1577.969	0E0
1579.524	0E0
1581.079	0E0
1582.634	0E0
1584.188	0E0
1585.742	0E0
1587.296	0E0
1588.85	0E0
1590.404	0E0
1591.957	0E0
1593.51	0E0
1595.064	0E0
1596.616	0E0
1598.169	0E0
1599.722	0E0
1601.274	0E0
1602.826	0E0
1604.378	0E0
1605.93	0E0
1607.482	0E0
1609.033	0E0
1610.584	0E0
1612.135	0E0
1613.686	0E0
1615.237	0E0
1616.787	0E0
1618.338	0E0
1619.888	0E0
1621.438	0E0
1622.988	0E0
1624.537	0E0
1626.087	51.7058E-6
1627.636	2.19085E-4
1629.185	5.41657E-4
1630.734	8.94052E-4
1632.282	14.3224E-4
1633.831	19.1757E-4
1635.379	22.9293E-4
1636.927	26.3661E-4
1638.475	31.1605E-4
1640.023	34.2562E-4
1641.571	38.0298E-4
1643.118	42.9267E-4
1644.665	46.4581E-4
1646.212	50.0296E-4
1647.759	51.6064E-4
1649.306	52.8751E-4
1650.852	53.4174E-4
1652.398	52.5015E-4
1653.944	50.805E-4
1655.49	47.3466E-4
1657.036	48.7935E-4
1658.582	46.0154E-4
1660.127	48.2895E-4
1661.672	45.4567E-4
1663.217	49.0927E-4
1664.762	43.0729E-4
1666.306	43.1062E-4
1667.851	38.5594E-4
1669.395	37.1808E-4
1670.939	31.9977E-4
1672.483	29.1159E-4
1674.027	27.7265E-4
1675.57	17.4586E-4
1677.113	20.5654E-4
1678.657	24.9039E-4
1680.2	26.2547E-4
1681.742	24.5523E-4
1683.285	36.0019E-4
1684.827	25.8852E-4
1686.369	28.96E-4
1687.911	28.9239E-4
1689.453	28.468E-4
1690.995	27.9464E-4
1692.536	46.7214E-4
1694.078	36.578E-4
1695.619	48.0042E-4
1697.16	64.6878E-4
1698.7	76.8014E-4
1700.241	91.2751E-4
1701.781	1.10137E-2
1703.321	1.16069E-2
1704.861	1.2002E-2
1706.401	1.15157E-2
1707.941	98.4508E-4
1709.48	91.963E-4
