Data from PC_PCFTen_00000.txt Node
Date: Fri Apr 03 16:02:51 CEST 2015
User: User
Spectrometer: NQ51A0689
Autoset integration time: false
Trigger mode: 0
Integration Time (sec): 1.000000E0
Scans to average: 1
Nonlinearity correction enabled: false
Boxcar width: 2
Stray light correction enabled: false
XAxis mode: Wavelengths
Stop averaging: false
Storing dark spectrum: false
Number of Pixels in Spectrum: 512
>>>>>Begin Spectral Data<<<<<
899.175	0E0
900.806	0E0
902.437	0E0
904.067	0E0
905.698	0E0
907.328	0E0
908.958	0E0
910.588	0E0
912.218	0E0
913.847	0E0
915.477	0E0
917.106	0E0
918.735	0E0
920.364	0E0
921.993	0E0
923.621	0E0
925.25	0E0
926.878	0E0
928.506	0E0
930.134	0E0
931.762	0E0
933.389	0E0
935.016	0E0
936.644	0E0
938.271	0E0
939.897	0E0
941.524	0E0
943.151	0E0
944.777	0E0
946.403	0E0
948.029	0E0
949.655	0E0
951.28	0E0
952.906	0E0
954.531	0E0
956.156	0E0
957.781	0E0
959.406	0E0
961.03	0E0
962.655	0E0
964.279	0E0
965.903	0E0
967.527	0E0
969.15	0E0
970.774	0E0
972.397	0E0
974.02	0E0
975.643	0E0
977.266	0E0
978.889	0E0
980.511	0E0
982.133	0E0
983.756	0E0
985.378	0E0
986.999	0E0
988.621	0E0
990.242	0E0
991.864	0E0
993.485	0E0
995.105	0E0
996.726	0E0
998.347	0E0
999.967	0E0
1001.587	0E0
1003.207	0E0
1004.827	0E0
1006.447	0E0
1008.066	0E0
1009.686	0E0
1011.305	0E0
1012.924	1.41639E-4
1014.543	4.82108E-4
1016.161	5.67449E-4
1017.78	6.82717E-4
1019.398	8.07439E-4
1021.016	9.46643E-4
1022.634	11.1226E-4
1024.252	13.3646E-4
1025.869	14.8362E-4
1027.487	16.4983E-4
1029.104	18.0378E-4
1030.721	17.8473E-4
1032.338	18.6664E-4
1033.954	19.921E-4
1035.571	22.1815E-4
1037.187	23.2773E-4
1038.803	25.4507E-4
1040.419	27.5453E-4
1042.035	29.1756E-4
1043.651	29.6653E-4
1045.266	31.9238E-4
1046.882	32.9491E-4
1048.497	34.8988E-4
1050.112	35.9346E-4
1051.726	37.6131E-4
1053.341	38.5445E-4
1054.955	39.4581E-4
1056.57	40.1829E-4
1058.184	40.8166E-4
1059.797	41.9422E-4
1061.411	42.7928E-4
1063.025	45.037E-4
1064.638	46.5071E-4
1066.251	49.2818E-4
1067.864	50.4395E-4
1069.477	52.1494E-4
1071.09	52.7624E-4
1072.702	53.5444E-4
1074.314	54.4651E-4
1075.927	54.3067E-4
1077.539	53.9039E-4
1079.15	53.1931E-4
1080.762	53.8188E-4
1082.373	54.8122E-4
1083.985	56.9406E-4
1085.596	58.1758E-4
1087.207	60.8431E-4
1088.817	62.0604E-4
1090.428	63.1158E-4
1092.038	64.2126E-4
1093.648	66.8722E-4
1095.258	69.2846E-4
1096.868	71.7286E-4
1098.478	73.4132E-4
1100.087	76.1861E-4
1101.697	78.8918E-4
1103.306	82.0391E-4
1104.915	86.1999E-4
1106.523	89.9356E-4
1108.132	95.2028E-4
1109.74	1.00964E-2
1111.349	1.08617E-2
1112.957	1.14627E-2
1114.565	1.23543E-2
1116.172	1.32631E-2
1117.78	1.44871E-2
1119.387	1.57236E-2
1120.994	1.73863E-2
1122.601	1.9225E-2
1124.208	2.12562E-2
1125.815	2.32187E-2
1127.421	2.55306E-2
1129.028	2.80752E-2
1130.634	3.06535E-2
1132.24	3.2839E-2
1133.846	3.48814E-2
1135.451	3.59263E-2
1137.057	3.60981E-2
1138.662	3.52009E-2
1140.267	3.38112E-2
1141.872	3.17106E-2
1143.476	2.95259E-2
1145.081	2.71707E-2
1146.685	2.50902E-2
1148.29	2.30828E-2
1149.894	2.11912E-2
1151.497	1.93005E-2
1153.101	1.74706E-2
1154.704	1.57131E-2
1156.308	1.40005E-2
1157.911	1.26038E-2
1159.514	1.15204E-2
1161.117	1.07943E-2
1162.719	1.02686E-2
1164.322	98.8685E-4
1165.924	97.1836E-4
1167.526	96.0762E-4
1169.128	95.4192E-4
1170.729	96.3077E-4
1172.331	1.0012E-2
1173.932	1.03363E-2
1175.533	1.09463E-2
1177.134	1.1513E-2
1178.735	1.23374E-2
1180.336	1.33274E-2
1181.936	1.46187E-2
1183.537	1.62028E-2
1185.137	1.80796E-2
1186.737	1.98555E-2
1188.336	2.11494E-2
1189.936	2.18623E-2
1191.535	2.14909E-2
1193.135	2.00745E-2
1194.734	1.77892E-2
1196.332	1.51625E-2
1197.931	1.24028E-2
1199.53	99.3446E-4
1201.128	82.0651E-4
1202.726	69.5646E-4
1204.324	62.131E-4
1205.922	57.1238E-4
1207.519	55.1978E-4
1209.117	52.1211E-4
1210.714	50.8261E-4
1212.311	49.0228E-4
1213.908	48.7855E-4
1215.505	47.2002E-4
1217.101	47.8531E-4
1218.698	47.2397E-4
1220.294	47.4917E-4
1221.89	46.0793E-4
1223.486	46.9511E-4
1225.081	45.7997E-4
1226.677	45.6078E-4
1228.272	44.933E-4
1229.867	45.6642E-4
1231.462	44.11E-4
1233.057	43.1409E-4
1234.651	42.1784E-4
1236.246	40.8358E-4
1237.84	39.3926E-4
1239.434	37.833E-4
1241.028	37.223E-4
1242.622	35.824E-4
1244.215	34.6859E-4
1245.809	33.6436E-4
1247.402	33.1939E-4
1248.995	32.4409E-4
1250.587	31.1385E-4
1252.18	30.7913E-4
1253.773	29.332E-4
1255.365	28.8509E-4
1256.957	27.3417E-4
1258.549	27.1502E-4
1260.141	25.0849E-4
1261.732	25.1332E-4
1263.323	23.6655E-4
1264.915	25.091E-4
1266.506	25.2913E-4
1268.096	27.0588E-4
1269.687	26.2919E-4
1271.278	26.1651E-4
1272.868	24.4548E-4
1274.458	24.7657E-4
1276.048	24.3432E-4
1277.638	24.9908E-4
1279.227	24.4181E-4
1280.817	23.037E-4
1282.406	20.6936E-4
1283.995	18.3653E-4
1285.584	17.676E-4
1287.172	17.5835E-4
1288.761	18.6888E-4
1290.349	19.5172E-4
1291.937	19.5806E-4
1293.525	19.3677E-4
1295.113	19.1623E-4
1296.701	18.231E-4
1298.288	16.9251E-4
1299.875	16.5376E-4
1301.462	15.0436E-4
1303.049	14.7749E-4
1304.636	13.5419E-4
1306.223	13.1754E-4
1307.809	12.3561E-4
1309.395	12.4261E-4
1310.981	12.1352E-4
1312.567	12.961E-4
1314.153	13.2274E-4
1315.738	14.227E-4
1317.323	13.9236E-4
1318.908	13.8354E-4
1320.493	12.9451E-4
1322.078	12.3722E-4
1323.663	10.8155E-4
1325.247	10.3226E-4
1326.831	8.30874E-4
1328.415	7.18349E-4
1329.999	6.12015E-4
1331.583	5.93562E-4
1333.166	3.32554E-4
1334.749	2.60069E-4
1336.333	0E0
1337.915	0E0
1339.498	0E0
1341.081	0E0
1342.663	0E0
1344.245	0E0
1345.827	0E0
1347.409	0E0
1348.991	0E0
1350.572	0E0
1352.154	88.9275E-6
1353.735	9.59249E-4
1355.316	19.0921E-4
1356.897	29.379E-4
1358.477	38.9912E-4
1360.058	47.0995E-4
1361.638	53.0855E-4
1363.218	56.7753E-4
1364.798	59.3112E-4
1366.377	61.5932E-4
1367.957	63.6219E-4
1369.536	65.2242E-4
1371.115	66.9017E-4
1372.694	68.2395E-4
1374.273	65.5489E-4
1375.852	61.9791E-4
1377.43	55.8612E-4
1379.008	47.5868E-4
1380.587	36.1647E-4
1382.164	25.1044E-4
1383.742	13.8287E-4
1385.32	7.14871E-4
1386.897	6.54609E-4
1388.474	27.6168E-4
1390.051	1.42767E-2
1391.628	2.641E-2
1393.205	2.94852E-2
1394.781	2.99746E-2
1396.357	2.83353E-2
1397.933	1.72529E-2
1399.509	50.185E-4
1401.085	16.9115E-4
1402.66	5.22063E-4
1404.236	0E0
1405.811	0E0
1407.386	0E0
1408.961	0E0
1410.535	0E0
1412.11	0E0
1413.684	0E0
1415.258	0E0
1416.832	0E0
1418.406	0E0
1419.979	0E0
1421.553	0E0
1423.126	0E0
1424.699	0E0
1426.272	0E0
1427.844	0E0
1429.417	0E0
1430.989	0E0
1432.561	0E0
1434.133	0E0
1435.705	0E0
1437.276	0E0
1438.848	0E0
1440.419	0E0
1441.99	0E0
1443.561	0E0
1445.131	0E0
1446.702	0E0
1448.272	0E0
1449.842	0E0
1451.412	0E0
1452.982	0E0
1454.551	0E0
1456.121	0E0
1457.69	0E0
1459.259	0E0
1460.828	0E0
1462.396	0E0
1463.965	0E0
1465.533	0E0
1467.101	0E0
1468.669	0E0
1470.237	0E0
1471.804	0E0
1473.372	0E0
1474.939	0E0
1476.506	0E0
1478.073	0E0
1479.639	0E0
1481.206	0E0
1482.772	0E0
1484.338	0E0
1485.904	0E0
1487.47	0E0
1489.035	0E0
1490.601	0E0
1492.166	0E0
1493.731	0E0
1495.296	0E0
1496.86	0E0
1498.425	0E0
1499.989	0E0
1501.553	0E0
1503.117	0E0
1504.681	0E0
1506.244	0E0
1507.808	0E0
1509.371	0E0
1510.934	0E0
1512.497	0E0
1514.059	0E0
1515.622	0E0
1517.184	0E0
1518.746	0E0
1520.308	0E0
1521.87	0E0
1523.431	0E0
1524.993	0E0
1526.554	0E0
1528.115	0E0
1529.676	0E0
1531.236	0E0
1532.797	0E0
1534.357	0E0
1535.917	0E0
1537.477	0E0
1539.037	0E0
1540.596	0E0
1542.155	0E0
1543.715	0E0
1545.273	0E0
1546.832	0E0
1548.391	0E0
1549.949	0E0
1551.508	0E0
1553.066	0E0
1554.623	0E0
1556.181	0E0
1557.739	0E0
1559.296	0E0
1560.853	0E0
1562.41	0E0
1563.967	0E0
1565.523	0E0
1567.08	0E0
1568.636	0E0
1570.192	0E0
1571.748	0E0
1573.304	0E0
1574.859	0E0
1576.414	0E0
1577.969	0E0
1579.524	0E0
1581.079	0E0
1582.634	0E0
1584.188	0E0
1585.742	0E0
1587.296	0E0
1588.85	0E0
1590.404	0E0
1591.957	0E0
1593.51	0E0
1595.064	0E0
1596.616	0E0
1598.169	0E0
1599.722	0E0
1601.274	0E0
1602.826	0E0
1604.378	0E0
1605.93	0E0
1607.482	0E0
1609.033	0E0
1610.584	0E0
1612.135	0E0
1613.686	0E0
1615.237	0E0
1616.787	0E0
1618.338	0E0
1619.888	0E0
1621.438	0E0
1622.988	2.96354E-4
1624.537	16.8529E-4
1626.087	29.5967E-4
1627.636	46.2249E-4
1629.185	67.8494E-4
1630.734	94.9851E-4
1632.282	1.24587E-2
1633.831	1.55376E-2
1635.379	1.84282E-2
1636.927	2.12137E-2
1638.475	2.4177E-2
1640.023	2.7662E-2
1641.571	3.18463E-2
1643.118	3.68156E-2
1644.665	4.21423E-2
1646.212	4.73745E-2
1647.759	5.21055E-2
1649.306	5.5905E-2
1650.852	5.86499E-2
1652.398	6.09887E-2
1653.944	6.35858E-2
1655.49	6.60635E-2
1657.036	6.9711E-2
1658.582	7.40161E-2
1660.127	7.88516E-2
1661.672	8.29316E-2
1663.217	8.73562E-2
1664.762	9.02622E-2
1666.306	9.2429E-2
1667.851	9.23201E-2
1669.395	9.05046E-2
1670.939	8.62011E-2
1672.483	7.96782E-2
1674.027	7.1022E-2
1675.57	6.14463E-2
1677.113	5.10159E-2
1678.657	4.22378E-2
1680.2	3.44779E-2
1681.742	2.86878E-2
1683.285	2.42546E-2
1684.827	2.19228E-2
1686.369	1.94016E-2
1687.911	1.55904E-2
1689.453	1.16059E-2
1690.995	70.5786E-4
1692.536	25.2525E-4
1694.078	0E0
1695.619	0E0
1697.16	0E0
1698.7	0E0
1700.241	0E0
1701.781	0E0
1703.321	0E0
1704.861	0E0
1706.401	0E0
1707.941	0E0
1709.48	0E0
