Data from PE_PETube_00000.txt Node
Date: Fri Apr 03 15:58:11 CEST 2015
User: User
Spectrometer: NQ51A0689
Autoset integration time: false
Trigger mode: 0
Integration Time (sec): 1.000000E0
Scans to average: 1
Nonlinearity correction enabled: false
Boxcar width: 2
Stray light correction enabled: false
XAxis mode: Wavelengths
Stop averaging: false
Storing dark spectrum: false
Number of Pixels in Spectrum: 512
>>>>>Begin Spectral Data<<<<<
899.175	29.403E-4
900.806	29.1734E-4
902.437	29.0756E-4
904.067	29.6737E-4
905.698	30.602E-4
907.328	33.2326E-4
908.958	37.0324E-4
910.588	41.1909E-4
912.218	47.9411E-4
913.847	52.9142E-4
915.477	59.2438E-4
917.106	63.4571E-4
918.735	68.2237E-4
920.364	73.5402E-4
921.993	80.7813E-4
923.621	88.5492E-4
925.25	97.6843E-4
926.878	1.07386E-2
928.506	1.15093E-2
930.134	1.22621E-2
931.762	1.24993E-2
933.389	1.26234E-2
935.016	1.21869E-2
936.644	1.14856E-2
938.271	1.0305E-2
939.897	90.8221E-4
941.524	75.496E-4
943.151	60.8431E-4
944.777	47.957E-4
946.403	36.1311E-4
948.029	26.8832E-4
949.655	16.641E-4
951.28	9.27288E-4
952.906	2.55628E-4
954.531	0E0
956.156	0E0
957.781	0E0
959.406	0E0
961.03	0E0
962.655	0E0
964.279	0E0
965.903	0E0
967.527	0E0
969.15	0E0
970.774	0E0
972.397	0E0
974.02	0E0
975.643	0E0
977.266	0E0
978.889	0E0
980.511	0E0
982.133	0E0
983.756	0E0
985.378	0E0
986.999	0E0
988.621	0E0
990.242	0E0
991.864	0E0
993.485	0E0
995.105	0E0
996.726	0E0
998.347	0E0
999.967	0E0
1001.587	0E0
1003.207	0E0
1004.827	0E0
1006.447	0E0
1008.066	0E0
1009.686	0E0
1011.305	0E0
1012.924	0E0
1014.543	0E0
1016.161	0E0
1017.78	0E0
1019.398	0E0
1021.016	0E0
1022.634	0E0
1024.252	0E0
1025.869	0E0
1027.487	0E0
1029.104	0E0
1030.721	0E0
1032.338	0E0
1033.954	0E0
1035.571	0E0
1037.187	0E0
1038.803	0E0
1040.419	0E0
1042.035	0E0
1043.651	0E0
1045.266	0E0
1046.882	0E0
1048.497	0E0
1050.112	0E0
1051.726	0E0
1053.341	0E0
1054.955	0E0
1056.57	0E0
1058.184	0E0
1059.797	0E0
1061.411	0E0
1063.025	0E0
1064.638	0E0
1066.251	0E0
1067.864	0E0
1069.477	0E0
1071.09	0E0
1072.702	0E0
1074.314	0E0
1075.927	0E0
1077.539	0E0
1079.15	0E0
1080.762	0E0
1082.373	0E0
1083.985	0E0
1085.596	0E0
1087.207	0E0
1088.817	0E0
1090.428	0E0
1092.038	0E0
1093.648	0E0
1095.258	0E0
1096.868	0E0
1098.478	0E0
1100.087	0E0
1101.697	0E0
1103.306	0E0
1104.915	0E0
1106.523	0E0
1108.132	0E0
1109.74	0E0
1111.349	0E0
1112.957	0E0
1114.565	0E0
1116.172	0E0
1117.78	0E0
1119.387	0E0
1120.994	0E0
1122.601	0E0
1124.208	0E0
1125.815	0E0
1127.421	0E0
1129.028	0E0
1130.634	0E0
1132.24	0E0
1133.846	0E0
1135.451	0E0
1137.057	0E0
1138.662	0E0
1140.267	0E0
1141.872	0E0
1143.476	0E0
1145.081	0E0
1146.685	0E0
1148.29	0E0
1149.894	0E0
1151.497	0E0
1153.101	0E0
1154.704	0E0
1156.308	0E0
1157.911	0E0
1159.514	0E0
1161.117	0E0
1162.719	0E0
1164.322	2.17714E-4
1165.924	24.0222E-4
1167.526	40.7102E-4
1169.128	50.3762E-4
1170.729	52.7879E-4
1172.331	52.5684E-4
1173.932	48.7946E-4
1175.533	49.102E-4
1177.134	53.2556E-4
1178.735	64.3637E-4
1180.336	77.9445E-4
1181.936	95.4812E-4
1183.537	1.15874E-2
1185.137	1.3853E-2
1186.737	1.5976E-2
1188.336	1.79106E-2
1189.936	1.95254E-2
1191.535	2.1022E-2
1193.135	2.25926E-2
1194.734	2.42768E-2
1196.332	2.64537E-2
1197.931	2.90318E-2
1199.53	3.16701E-2
1201.128	3.44846E-2
1202.726	3.72836E-2
1204.324	4.00328E-2
1205.922	4.26573E-2
1207.519	4.52667E-2
1209.117	4.75455E-2
1210.714	4.95663E-2
1212.311	5.1123E-2
1213.908	5.22521E-2
1215.505	5.28143E-2
1217.101	5.2853E-2
1218.698	5.2145E-2
1220.294	5.0813E-2
1221.89	4.86612E-2
1223.486	4.59462E-2
1225.081	4.25604E-2
1226.677	3.90805E-2
1228.272	3.53554E-2
1229.867	3.18133E-2
1231.462	2.82437E-2
1233.057	2.49896E-2
1234.651	2.19196E-2
1236.246	1.91266E-2
1237.84	1.6554E-2
1239.434	1.41956E-2
1241.028	1.21185E-2
1242.622	1.01028E-2
1244.215	81.9625E-4
1245.809	63.8317E-4
1247.402	48.0719E-4
1248.995	32.6801E-4
1250.587	17.8554E-4
1252.18	5.72956E-4
1253.773	0E0
1255.365	0E0
1256.957	0E0
1258.549	0E0
1260.141	0E0
1261.732	0E0
1263.323	0E0
1264.915	0E0
1266.506	0E0
1268.096	0E0
1269.687	0E0
1271.278	0E0
1272.868	0E0
1274.458	0E0
1276.048	0E0
1277.638	0E0
1279.227	0E0
1280.817	0E0
1282.406	0E0
1283.995	0E0
1285.584	0E0
1287.172	0E0
1288.761	0E0
1290.349	0E0
1291.937	0E0
1293.525	0E0
1295.113	0E0
1296.701	0E0
1298.288	0E0
1299.875	0E0
1301.462	0E0
1303.049	0E0
1304.636	0E0
1306.223	0E0
1307.809	0E0
1309.395	0E0
1310.981	0E0
1312.567	0E0
1314.153	0E0
1315.738	0E0
1317.323	0E0
1318.908	0E0
1320.493	0E0
1322.078	0E0
1323.663	0E0
1325.247	0E0
1326.831	0E0
1328.415	0E0
1329.999	0E0
1331.583	0E0
1333.166	0E0
1334.749	0E0
1336.333	0E0
1337.915	0E0
1339.498	0E0
1341.081	0E0
1342.663	0E0
1344.245	0E0
1345.827	0E0
1347.409	0E0
1348.991	0E0
1350.572	0E0
1352.154	0E0
1353.735	0E0
1355.316	0E0
1356.897	0E0
1358.477	0E0
1360.058	0E0
1361.638	0E0
1363.218	0E0
1364.798	0E0
1366.377	0E0
1367.957	0E0
1369.536	0E0
1371.115	0E0
1372.694	0E0
1374.273	0E0
1375.852	0E0
1377.43	0E0
1379.008	0E0
1380.587	0E0
1382.164	0E0
1383.742	0E0
1385.32	3.4173E-4
1386.897	31.6879E-4
1388.474	64.0545E-4
1390.051	1.03114E-2
1391.628	1.43384E-2
1393.205	1.82363E-2
1394.781	2.07334E-2
1396.357	2.1207E-2
1397.933	1.98382E-2
1399.509	1.73075E-2
1401.085	1.41435E-2
1402.66	1.18189E-2
1404.236	1.08009E-2
1405.811	1.09332E-2
1407.386	1.17706E-2
1408.961	1.31349E-2
1410.535	1.45777E-2
1412.11	1.63177E-2
1413.684	1.81689E-2
1415.258	1.98348E-2
1416.832	2.07829E-2
1418.406	2.12703E-2
1419.979	2.12245E-2
1421.553	2.06756E-2
1423.126	2.0036E-2
1424.699	1.95399E-2
1426.272	1.92471E-2
1427.844	1.87776E-2
1429.417	1.83579E-2
1430.989	1.7704E-2
1432.561	1.72925E-2
1434.133	1.69066E-2
1435.705	1.67536E-2
1437.276	1.66031E-2
1438.848	1.65142E-2
1440.419	1.61279E-2
1441.99	1.54999E-2
1443.561	1.47197E-2
1445.131	1.37098E-2
1446.702	1.27318E-2
1448.272	1.18792E-2
1449.842	1.11351E-2
1451.412	1.04153E-2
1452.982	96.7276E-4
1454.551	89.8926E-4
1456.121	82.4544E-4
1457.69	76.4315E-4
1459.259	71.3667E-4
1460.828	67.0441E-4
1462.396	61.7631E-4
1463.965	56.3258E-4
1465.533	49.4379E-4
1467.101	40.7691E-4
1468.669	32.0297E-4
1470.237	22.288E-4
1471.804	13.3203E-4
1473.372	4.53179E-4
1474.939	0E0
1476.506	0E0
1478.073	0E0
1479.639	0E0
1481.206	0E0
1482.772	0E0
1484.338	0E0
1485.904	0E0
1487.47	0E0
1489.035	0E0
1490.601	0E0
1492.166	0E0
1493.731	0E0
1495.296	0E0
1496.86	0E0
1498.425	0E0
1499.989	0E0
1501.553	0E0
1503.117	0E0
1504.681	0E0
1506.244	0E0
1507.808	0E0
1509.371	0E0
1510.934	0E0
1512.497	0E0
1514.059	0E0
1515.622	0E0
1517.184	0E0
1518.746	0E0
1520.308	0E0
1521.87	0E0
1523.431	0E0
1524.993	0E0
1526.554	0E0
1528.115	0E0
1529.676	0E0
1531.236	0E0
1532.797	0E0
1534.357	0E0
1535.917	0E0
1537.477	0E0
1539.037	0E0
1540.596	4.41022E-4
1542.155	9.27711E-4
1543.715	10.5124E-4
1545.273	6.96668E-4
1546.832	64.8703E-6
1548.391	0E0
1549.949	0E0
1551.508	0E0
1553.066	0E0
1554.623	0E0
1556.181	0E0
1557.739	0E0
1559.296	0E0
1560.853	0E0
1562.41	0E0
1563.967	0E0
1565.523	0E0
1567.08	0E0
1568.636	0E0
1570.192	0E0
1571.748	0E0
1573.304	0E0
1574.859	0E0
1576.414	0E0
1577.969	0E0
1579.524	0E0
1581.079	0E0
1582.634	0E0
1584.188	0E0
1585.742	0E0
1587.296	0E0
1588.85	0E0
1590.404	0E0
1591.957	0E0
1593.51	0E0
1595.064	0E0
1596.616	0E0
1598.169	0E0
1599.722	0E0
1601.274	0E0
1602.826	0E0
1604.378	0E0
1605.93	0E0
1607.482	0E0
1609.033	0E0
1610.584	0E0
1612.135	0E0
1613.686	0E0
1615.237	0E0
1616.787	0E0
1618.338	0E0
1619.888	0E0
1621.438	0E0
1622.988	0E0
1624.537	0E0
1626.087	0E0
1627.636	0E0
1629.185	0E0
1630.734	2.97459E-4
1632.282	6.5606E-4
1633.831	9.91471E-4
1635.379	13.5346E-4
1636.927	16.8749E-4
1638.475	19.5669E-4
1640.023	21.8447E-4
1641.571	23.0874E-4
1643.118	26.0118E-4
1644.665	26.6193E-4
1646.212	27.9607E-4
1647.759	28.9343E-4
1649.306	30.5989E-4
1650.852	30.5127E-4
1652.398	30.0729E-4
1653.944	30.4644E-4
1655.49	27.2561E-4
1657.036	27.3138E-4
1658.582	25.1618E-4
1660.127	27.344E-4
1661.672	21.9074E-4
1663.217	23.6365E-4
1664.762	20.0973E-4
1666.306	20.3338E-4
1667.851	12.6201E-4
1669.395	14.0172E-4
1670.939	10.875E-4
1672.483	5.25429E-4
1674.027	50.2779E-8
1675.57	0E0
1677.113	0E0
1678.657	0E0
1680.2	0E0
1681.742	0E0
1683.285	0E0
1684.827	0E0
1686.369	0E0
1687.911	0E0
1689.453	2.64615E-4
1690.995	17.6486E-4
1692.536	24.4545E-4
1694.078	18.9208E-4
1695.619	29.6811E-4
1697.16	35.1019E-4
1698.7	35.8367E-4
1700.241	36.6989E-4
1701.781	48.0738E-4
1703.321	52.9988E-4
1704.861	59.4937E-4
1706.401	43.2865E-4
1707.941	38.6547E-4
1709.48	29.3683E-4
