Data from PMMA_Units14_00001.txt Node
Date: Fri Apr 03 16:03:59 CEST 2015
User: User
Spectrometer: NQ51A0689
Autoset integration time: false
Trigger mode: 0
Integration Time (sec): 1.000000E0
Scans to average: 1
Nonlinearity correction enabled: false
Boxcar width: 2
Stray light correction enabled: false
XAxis mode: Wavelengths
Stop averaging: false
Storing dark spectrum: false
Number of Pixels in Spectrum: 512
>>>>>Begin Spectral Data<<<<<
899.175	0E0
900.806	0E0
902.437	0E0
904.067	0E0
905.698	0E0
907.328	0E0
908.958	0E0
910.588	0E0
912.218	0E0
913.847	0E0
915.477	0E0
917.106	0E0
918.735	0E0
920.364	0E0
921.993	0E0
923.621	0E0
925.25	0E0
926.878	0E0
928.506	0E0
930.134	0E0
931.762	0E0
933.389	0E0
935.016	0E0
936.644	0E0
938.271	0E0
939.897	0E0
941.524	0E0
943.151	0E0
944.777	0E0
946.403	0E0
948.029	0E0
949.655	0E0
951.28	0E0
952.906	0E0
954.531	0E0
956.156	0E0
957.781	0E0
959.406	0E0
961.03	0E0
962.655	0E0
964.279	0E0
965.903	0E0
967.527	0E0
969.15	0E0
970.774	0E0
972.397	0E0
974.02	0E0
975.643	0E0
977.266	0E0
978.889	0E0
980.511	0E0
982.133	0E0
983.756	0E0
985.378	0E0
986.999	0E0
988.621	0E0
990.242	0E0
991.864	0E0
993.485	0E0
995.105	1.66989E-4
996.726	7.7925E-6
998.347	2.68549E-4
999.967	1.82882E-4
1001.587	1.97706E-4
1003.207	1.50752E-4
1004.827	2.3372E-4
1006.447	1.26147E-4
1008.066	2.63322E-4
1009.686	1.96997E-4
1011.305	3.01844E-4
1012.924	2.7527E-4
1014.543	3.36599E-4
1016.161	2.68075E-4
1017.78	2.88934E-4
1019.398	2.91512E-4
1021.016	2.744E-4
1022.634	4.01615E-4
1024.252	3.04729E-4
1025.869	4.0327E-4
1027.487	3.78965E-4
1029.104	4.86592E-4
1030.721	3.62304E-4
1032.338	3.90481E-4
1033.954	4.30273E-4
1035.571	4.55861E-4
1037.187	5.22673E-4
1038.803	5.82201E-4
1040.419	6.72872E-4
1042.035	5.91755E-4
1043.651	5.42339E-4
1045.266	4.77325E-4
1046.882	3.17235E-4
1048.497	3.09969E-4
1050.112	2.50802E-4
1051.726	2.80785E-4
1053.341	1.86143E-4
1054.955	2.47785E-4
1056.57	2.24075E-4
1058.184	2.11423E-4
1059.797	1.61126E-4
1061.411	1.43943E-4
1063.025	1.04639E-4
1064.638	1.16411E-4
1066.251	2.40111E-4
1067.864	2.06381E-4
1069.477	2.97172E-4
1071.09	3.51442E-4
1072.702	2.32029E-4
1074.314	3.32033E-4
1075.927	1.94677E-4
1077.539	2.12156E-4
1079.15	87.1348E-6
1080.762	1.74878E-4
1082.373	22.7308E-6
1083.985	1.28908E-4
1085.596	19.3794E-6
1087.207	78.4122E-6
1088.817	19.6252E-6
1090.428	0E0
1092.038	53.8096E-6
1093.648	26.6131E-6
1095.258	1.47687E-4
1096.868	2.89599E-4
1098.478	2.99926E-4
1100.087	3.31534E-4
1101.697	3.23259E-4
1103.306	3.07216E-4
1104.915	2.249E-4
1106.523	3.0139E-4
1108.132	3.56149E-4
1109.74	5.4927E-4
1111.349	6.06769E-4
1112.957	7.10854E-4
1114.565	8.41805E-4
1116.172	8.88533E-4
1117.78	9.77805E-4
1119.387	11.634E-4
1120.994	13.4715E-4
1122.601	15.4603E-4
1124.208	17.585E-4
1125.815	18.9633E-4
1127.421	20.1651E-4
1129.028	21.4859E-4
1130.634	22.4026E-4
1132.24	23.7147E-4
1133.846	25.8519E-4
1135.451	27.3727E-4
1137.057	29.5713E-4
1138.662	31.6124E-4
1140.267	33.2257E-4
1141.872	34.5064E-4
1143.476	36.3398E-4
1145.081	36.8454E-4
1146.685	37.6428E-4
1148.29	39.3345E-4
1149.894	40.5794E-4
1151.497	42.3819E-4
1153.101	44.4918E-4
1154.704	46.4796E-4
1156.308	46.9609E-4
1157.911	49.2326E-4
1159.514	50.1968E-4
1161.117	51.0873E-4
1162.719	52.2819E-4
1164.322	53.521E-4
1165.924	53.6206E-4
1167.526	53.9851E-4
1169.128	55.0414E-4
1170.729	54.9061E-4
1172.331	55.5944E-4
1173.932	55.3433E-4
1175.533	56.1081E-4
1177.134	53.7922E-4
1178.735	53.4884E-4
1180.336	50.6239E-4
1181.936	48.204E-4
1183.537	43.5348E-4
1185.137	40.9106E-4
1186.737	36.8148E-4
1188.336	35.0848E-4
1189.936	32.7132E-4
1191.535	31.5799E-4
1193.135	30.8165E-4
1194.734	29.3789E-4
1196.332	28.1572E-4
1197.931	26.4172E-4
1199.53	24.4155E-4
1201.128	23.6865E-4
1202.726	22.75E-4
1204.324	21.2567E-4
1205.922	19.3534E-4
1207.519	17.996E-4
1209.117	14.8123E-4
1210.714	12.0495E-4
1212.311	9.40993E-4
1213.908	7.8633E-4
1215.505	6.21334E-4
1217.101	4.82714E-4
1218.698	3.09197E-4
1220.294	2.24037E-4
1221.89	1.66525E-4
1223.486	1.2511E-4
1225.081	38.9598E-6
1226.677	1.11424E-4
1228.272	66.728E-6
1229.867	12.6261E-6
1231.462	0E0
1233.057	0E0
1234.651	0E0
1236.246	0E0
1237.84	0E0
1239.434	0E0
1241.028	0E0
1242.622	0E0
1244.215	0E0
1245.809	0E0
1247.402	0E0
1248.995	0E0
1250.587	0E0
1252.18	0E0
1253.773	0E0
1255.365	0E0
1256.957	0E0
1258.549	0E0
1260.141	0E0
1261.732	0E0
1263.323	0E0
1264.915	0E0
1266.506	0E0
1268.096	0E0
1269.687	0E0
1271.278	0E0
1272.868	0E0
1274.458	0E0
1276.048	0E0
1277.638	0E0
1279.227	0E0
1280.817	0E0
1282.406	0E0
1283.995	0E0
1285.584	0E0
1287.172	0E0
1288.761	0E0
1290.349	0E0
1291.937	0E0
1293.525	0E0
1295.113	0E0
1296.701	0E0
1298.288	0E0
1299.875	0E0
1301.462	0E0
1303.049	0E0
1304.636	0E0
1306.223	0E0
1307.809	0E0
1309.395	0E0
1310.981	0E0
1312.567	0E0
1314.153	0E0
1315.738	0E0
1317.323	0E0
1318.908	0E0
1320.493	0E0
1322.078	0E0
1323.663	0E0
1325.247	0E0
1326.831	0E0
1328.415	0E0
1329.999	0E0
1331.583	0E0
1333.166	0E0
1334.749	1.96484E-4
1336.333	5.23143E-4
1337.915	9.01835E-4
1339.498	13.2947E-4
1341.081	18.6835E-4
1342.663	23.1667E-4
1344.245	27.5671E-4
1345.827	30.4408E-4
1347.409	32.6859E-4
1348.991	33.1088E-4
1350.572	33.5882E-4
1352.154	33.3234E-4
1353.735	34.5671E-4
1355.316	34.3821E-4
1356.897	34.9373E-4
1358.477	35.1426E-4
1360.058	35.6633E-4
1361.638	35.2489E-4
1363.218	35.9738E-4
1364.798	36.3315E-4
1366.377	37.44E-4
1367.957	37.5357E-4
1369.536	38.1357E-4
1371.115	36.6499E-4
1372.694	35.4647E-4
1374.273	32.5074E-4
1375.852	29.3496E-4
1377.43	23.6819E-4
1379.008	19.6633E-4
1380.587	14.92E-4
1382.164	10.2446E-4
1383.742	7.07373E-4
1385.32	5.74118E-4
1386.897	4.93167E-4
1388.474	5.3489E-4
1390.051	7.46101E-4
1391.628	9.43794E-4
1393.205	10.3875E-4
1394.781	11.8783E-4
1396.357	11.9559E-4
1397.933	11.8569E-4
1399.509	10.7542E-4
1401.085	10.6365E-4
1402.66	10.7357E-4
1404.236	10.5888E-4
1405.811	10.5525E-4
1407.386	10.8671E-4
1408.961	11.7313E-4
1410.535	11.6709E-4
1412.11	12.612E-4
1413.684	13.2589E-4
1415.258	15.0042E-4
1416.832	14.9224E-4
1418.406	16.1134E-4
1419.979	16.0114E-4
1421.553	15.3806E-4
1423.126	14.6022E-4
1424.699	14.5996E-4
1426.272	13.1697E-4
1427.844	12.0614E-4
1429.417	11.4961E-4
1430.989	9.35747E-4
1432.561	7.6421E-4
1434.133	5.93452E-4
1435.705	4.27438E-4
1437.276	2.40897E-4
1438.848	95.7466E-6
1440.419	29.9787E-6
1441.99	0E0
1443.561	0E0
1445.131	0E0
1446.702	0E0
1448.272	0E0
1449.842	0E0
1451.412	0E0
1452.982	0E0
1454.551	0E0
1456.121	0E0
1457.69	0E0
1459.259	0E0
1460.828	0E0
1462.396	0E0
1463.965	0E0
1465.533	0E0
1467.101	0E0
1468.669	0E0
1470.237	0E0
1471.804	0E0
1473.372	0E0
1474.939	0E0
1476.506	0E0
1478.073	0E0
1479.639	0E0
1481.206	0E0
1482.772	0E0
1484.338	0E0
1485.904	0E0
1487.47	0E0
1489.035	0E0
1490.601	0E0
1492.166	0E0
1493.731	0E0
1495.296	0E0
1496.86	0E0
1498.425	0E0
1499.989	0E0
1501.553	0E0
1503.117	0E0
1504.681	0E0
1506.244	0E0
1507.808	0E0
1509.371	0E0
1510.934	0E0
1512.497	0E0
1514.059	0E0
1515.622	0E0
1517.184	0E0
1518.746	0E0
1520.308	0E0
1521.87	0E0
1523.431	0E0
1524.993	0E0
1526.554	0E0
1528.115	0E0
1529.676	0E0
1531.236	0E0
1532.797	0E0
1534.357	0E0
1535.917	0E0
1537.477	0E0
1539.037	0E0
1540.596	0E0
1542.155	0E0
1543.715	0E0
1545.273	0E0
1546.832	0E0
1548.391	0E0
1549.949	0E0
1551.508	0E0
1553.066	0E0
1554.623	0E0
1556.181	0E0
1557.739	0E0
1559.296	0E0
1560.853	0E0
1562.41	0E0
1563.967	0E0
1565.523	0E0
1567.08	0E0
1568.636	0E0
1570.192	0E0
1571.748	0E0
1573.304	0E0
1574.859	0E0
1576.414	0E0
1577.969	0E0
1579.524	0E0
1581.079	0E0
1582.634	0E0
1584.188	0E0
1585.742	0E0
1587.296	0E0
1588.85	0E0
1590.404	0E0
1591.957	0E0
1593.51	0E0
1595.064	0E0
1596.616	0E0
1598.169	0E0
1599.722	0E0
1601.274	0E0
1602.826	0E0
1604.378	0E0
1605.93	0E0
1607.482	0E0
1609.033	0E0
1610.584	0E0
1612.135	0E0
1613.686	0E0
1615.237	0E0
1616.787	0E0
1618.338	0E0
1619.888	0E0
1621.438	0E0
1622.988	0E0
1624.537	0E0
1626.087	0E0
1627.636	0E0
1629.185	0E0
1630.734	0E0
1632.282	0E0
1633.831	0E0
1635.379	0E0
1636.927	0E0
1638.475	0E0
1640.023	0E0
1641.571	0E0
1643.118	0E0
1644.665	0E0
1646.212	0E0
1647.759	0E0
1649.306	0E0
1650.852	0E0
1652.398	3.26506E-4
1653.944	10.1859E-4
1655.49	14.4961E-4
1657.036	24.8753E-4
1658.582	33.9554E-4
1660.127	41.4147E-4
1661.672	44.8105E-4
1663.217	53.3749E-4
1664.762	53.4188E-4
1666.306	54.5646E-4
1667.851	57.0334E-4
1669.395	58.5248E-4
1670.939	59.2992E-4
1672.483	61.431E-4
1674.027	61.2092E-4
1675.57	61.9209E-4
1677.113	65.6716E-4
1678.657	70.5776E-4
1680.2	73.3644E-4
1681.742	72.5448E-4
1683.285	71.3547E-4
1684.827	66.4923E-4
1686.369	65.4538E-4
1687.911	51.5084E-4
1689.453	48.1196E-4
1690.995	48.3141E-4
1692.536	65.2158E-4
1694.078	54.5739E-4
1695.619	61.5478E-4
1697.16	79.2776E-4
1698.7	90.3631E-4
1700.241	89.3109E-4
1701.781	1.08487E-2
1703.321	1.24336E-2
1704.861	1.24001E-2
1706.401	1.23535E-2
1707.941	1.23823E-2
1709.48	1.19116E-2
