Data from PP_PPGreenTube_00001.txt Node
Date: Fri Apr 03 16:08:09 CEST 2015
User: User
Spectrometer: NQ51A0689
Autoset integration time: false
Trigger mode: 0
Integration Time (sec): 1.000000E0
Scans to average: 1
Nonlinearity correction enabled: false
Boxcar width: 2
Stray light correction enabled: false
XAxis mode: Wavelengths
Stop averaging: false
Storing dark spectrum: false
Number of Pixels in Spectrum: 512
>>>>>Begin Spectral Data<<<<<
899.175	76.2313E-4
900.806	79.585E-4
902.437	81.3428E-4
904.067	85.6081E-4
905.698	90.9137E-4
907.328	97.6141E-4
908.958	1.0368E-2
910.588	1.10491E-2
912.218	1.1307E-2
913.847	1.16091E-2
915.477	1.12411E-2
917.106	1.07427E-2
918.735	1.0055E-2
920.364	96.3983E-4
921.993	89.8653E-4
923.621	85.9551E-4
925.25	81.1089E-4
926.878	77.1605E-4
928.506	73.3998E-4
930.134	70.4979E-4
931.762	68.1654E-4
933.389	66.9008E-4
935.016	63.4529E-4
936.644	57.912E-4
938.271	52.2713E-4
939.897	44.2875E-4
941.524	35.3316E-4
943.151	24.6206E-4
944.777	17.1511E-4
946.403	5.60763E-4
948.029	0E0
949.655	0E0
951.28	0E0
952.906	0E0
954.531	0E0
956.156	0E0
957.781	0E0
959.406	0E0
961.03	0E0
962.655	0E0
964.279	0E0
965.903	0E0
967.527	0E0
969.15	0E0
970.774	0E0
972.397	0E0
974.02	0E0
975.643	0E0
977.266	0E0
978.889	0E0
980.511	0E0
982.133	0E0
983.756	0E0
985.378	0E0
986.999	0E0
988.621	0E0
990.242	0E0
991.864	0E0
993.485	0E0
995.105	0E0
996.726	0E0
998.347	0E0
999.967	0E0
1001.587	0E0
1003.207	0E0
1004.827	0E0
1006.447	0E0
1008.066	0E0
1009.686	0E0
1011.305	0E0
1012.924	0E0
1014.543	0E0
1016.161	0E0
1017.78	0E0
1019.398	0E0
1021.016	0E0
1022.634	0E0
1024.252	0E0
1025.869	0E0
1027.487	0E0
1029.104	0E0
1030.721	0E0
1032.338	0E0
1033.954	0E0
1035.571	0E0
1037.187	0E0
1038.803	0E0
1040.419	0E0
1042.035	0E0
1043.651	0E0
1045.266	0E0
1046.882	0E0
1048.497	0E0
1050.112	0E0
1051.726	0E0
1053.341	0E0
1054.955	0E0
1056.57	0E0
1058.184	0E0
1059.797	0E0
1061.411	0E0
1063.025	0E0
1064.638	0E0
1066.251	0E0
1067.864	0E0
1069.477	0E0
1071.09	0E0
1072.702	0E0
1074.314	0E0
1075.927	0E0
1077.539	0E0
1079.15	0E0
1080.762	0E0
1082.373	0E0
1083.985	0E0
1085.596	0E0
1087.207	0E0
1088.817	0E0
1090.428	0E0
1092.038	0E0
1093.648	0E0
1095.258	0E0
1096.868	0E0
1098.478	0E0
1100.087	0E0
1101.697	0E0
1103.306	0E0
1104.915	0E0
1106.523	0E0
1108.132	0E0
1109.74	0E0
1111.349	0E0
1112.957	0E0
1114.565	0E0
1116.172	0E0
1117.78	0E0
1119.387	0E0
1120.994	0E0
1122.601	0E0
1124.208	0E0
1125.815	0E0
1127.421	0E0
1129.028	0E0
1130.634	0E0
1132.24	0E0
1133.846	0E0
1135.451	0E0
1137.057	0E0
1138.662	0E0
1140.267	0E0
1141.872	0E0
1143.476	0E0
1145.081	0E0
1146.685	0E0
1148.29	21.9542E-4
1149.894	45.8486E-4
1151.497	68.5372E-4
1153.101	86.9135E-4
1154.704	99.587E-4
1156.308	1.0276E-2
1157.911	1.00988E-2
1159.514	96.3806E-4
1161.117	94.4984E-4
1162.719	96.3206E-4
1164.322	1.02954E-2
1165.924	1.14998E-2
1167.526	1.30153E-2
1169.128	1.46265E-2
1170.729	1.6107E-2
1172.331	1.76288E-2
1173.932	1.89828E-2
1175.533	2.02593E-2
1177.134	2.12742E-2
1178.735	2.24608E-2
1180.336	2.36975E-2
1181.936	2.5337E-2
1183.537	2.72618E-2
1185.137	2.96138E-2
1186.737	3.19697E-2
1188.336	3.43103E-2
1189.936	3.62478E-2
1191.535	3.76954E-2
1193.135	3.84844E-2
1194.734	3.86271E-2
1196.332	3.82472E-2
1197.931	3.76062E-2
1199.53	3.68987E-2
1201.128	3.6314E-2
1202.726	3.57205E-2
1204.324	3.52424E-2
1205.922	3.47764E-2
1207.519	3.45203E-2
1209.117	3.44047E-2
1210.714	3.45663E-2
1212.311	3.47789E-2
1213.908	3.49635E-2
1215.505	3.47779E-2
1217.101	3.42682E-2
1218.698	3.33934E-2
1220.294	3.23269E-2
1221.89	3.09151E-2
1223.486	2.93456E-2
1225.081	2.75169E-2
1226.677	2.55951E-2
1228.272	2.34859E-2
1229.867	2.14107E-2
1231.462	1.92532E-2
1233.057	1.71902E-2
1234.651	1.52238E-2
1236.246	1.33366E-2
1237.84	1.14292E-2
1239.434	96.9703E-4
1241.028	81.1084E-4
1242.622	65.7496E-4
1244.215	50.8999E-4
1245.809	38.0952E-4
1247.402	25.0752E-4
1248.995	13.5414E-4
1250.587	96.0171E-6
1252.18	0E0
1253.773	0E0
1255.365	0E0
1256.957	0E0
1258.549	0E0
1260.141	0E0
1261.732	0E0
1263.323	0E0
1264.915	0E0
1266.506	0E0
1268.096	0E0
1269.687	0E0
1271.278	0E0
1272.868	0E0
1274.458	0E0
1276.048	0E0
1277.638	0E0
1279.227	0E0
1280.817	0E0
1282.406	0E0
1283.995	0E0
1285.584	0E0
1287.172	0E0
1288.761	0E0
1290.349	0E0
1291.937	0E0
1293.525	0E0
1295.113	0E0
1296.701	0E0
1298.288	0E0
1299.875	0E0
1301.462	0E0
1303.049	0E0
1304.636	0E0
1306.223	0E0
1307.809	0E0
1309.395	0E0
1310.981	0E0
1312.567	0E0
1314.153	0E0
1315.738	0E0
1317.323	0E0
1318.908	0E0
1320.493	0E0
1322.078	0E0
1323.663	0E0
1325.247	0E0
1326.831	0E0
1328.415	0E0
1329.999	0E0
1331.583	0E0
1333.166	0E0
1334.749	0E0
1336.333	0E0
1337.915	0E0
1339.498	0E0
1341.081	0E0
1342.663	0E0
1344.245	0E0
1345.827	0E0
1347.409	0E0
1348.991	0E0
1350.572	0E0
1352.154	0E0
1353.735	0E0
1355.316	0E0
1356.897	0E0
1358.477	0E0
1360.058	0E0
1361.638	2.45139E-4
1363.218	22.1571E-4
1364.798	34.9376E-4
1366.377	42.6299E-4
1367.957	48.9414E-4
1369.536	55.5633E-4
1371.115	62.2487E-4
1372.694	69.6053E-4
1374.273	77.5887E-4
1375.852	83.6626E-4
1377.43	89.0561E-4
1379.008	94.3388E-4
1380.587	1.00816E-2
1382.164	1.07856E-2
1383.742	1.15986E-2
1385.32	1.2269E-2
1386.897	1.28655E-2
1388.474	1.33111E-2
1390.051	1.3755E-2
1391.628	1.41984E-2
1393.205	1.50685E-2
1394.781	1.61606E-2
1396.357	1.71612E-2
1397.933	1.76797E-2
1399.509	1.76936E-2
1401.085	1.70559E-2
1402.66	1.59915E-2
1404.236	1.44732E-2
1405.811	1.31371E-2
1407.386	1.21526E-2
1408.961	1.16485E-2
1410.535	1.15306E-2
1412.11	1.19027E-2
1413.684	1.23419E-2
1415.258	1.28003E-2
1416.832	1.27925E-2
1418.406	1.24841E-2
1419.979	1.18088E-2
1421.553	1.09365E-2
1423.126	1.00618E-2
1424.699	93.3155E-4
1426.272	87.8976E-4
1427.844	84.2576E-4
1429.417	83.1599E-4
1430.989	80.8861E-4
1432.561	79.8153E-4
1434.133	76.8088E-4
1435.705	74.5363E-4
1437.276	71.1029E-4
1438.848	69.5116E-4
1440.419	66.5504E-4
1441.99	63.9653E-4
1443.561	61.706E-4
1445.131	58.3975E-4
1446.702	54.0968E-4
1448.272	49.6895E-4
1449.842	45.0827E-4
1451.412	38.2928E-4
1452.982	33.1319E-4
1454.551	27.9658E-4
1456.121	23.1264E-4
1457.69	18.5395E-4
1459.259	16.5415E-4
1460.828	13.4383E-4
1462.396	9.85431E-4
1463.965	6.48573E-4
1465.533	3.47147E-4
1467.101	0E0
1468.669	0E0
1470.237	0E0
1471.804	0E0
1473.372	0E0
1474.939	0E0
1476.506	0E0
1478.073	0E0
1479.639	0E0
1481.206	0E0
1482.772	0E0
1484.338	0E0
1485.904	0E0
1487.47	0E0
1489.035	0E0
1490.601	0E0
1492.166	0E0
1493.731	0E0
1495.296	0E0
1496.86	0E0
1498.425	0E0
1499.989	0E0
1501.553	0E0
1503.117	0E0
1504.681	0E0
1506.244	0E0
1507.808	0E0
1509.371	0E0
1510.934	0E0
1512.497	0E0
1514.059	0E0
1515.622	0E0
1517.184	0E0
1518.746	0E0
1520.308	0E0
1521.87	0E0
1523.431	0E0
1524.993	0E0
1526.554	0E0
1528.115	0E0
1529.676	0E0
1531.236	0E0
1532.797	0E0
1534.357	0E0
1535.917	0E0
1537.477	0E0
1539.037	0E0
1540.596	0E0
1542.155	0E0
1543.715	0E0
1545.273	0E0
1546.832	0E0
1548.391	0E0
1549.949	0E0
1551.508	0E0
1553.066	0E0
1554.623	0E0
1556.181	0E0
1557.739	0E0
1559.296	0E0
1560.853	0E0
1562.41	0E0
1563.967	0E0
1565.523	0E0
1567.08	0E0
1568.636	0E0
1570.192	0E0
1571.748	0E0
1573.304	0E0
1574.859	0E0
1576.414	0E0
1577.969	0E0
1579.524	0E0
1581.079	0E0
1582.634	0E0
1584.188	0E0
1585.742	0E0
1587.296	0E0
1588.85	0E0
1590.404	0E0
1591.957	0E0
1593.51	0E0
1595.064	0E0
1596.616	0E0
1598.169	0E0
1599.722	0E0
1601.274	0E0
1602.826	0E0
1604.378	0E0
1605.93	0E0
1607.482	0E0
1609.033	0E0
1610.584	0E0
1612.135	0E0
1613.686	0E0
1615.237	0E0
1616.787	0E0
1618.338	0E0
1619.888	0E0
1621.438	0E0
1622.988	0E0
1624.537	0E0
1626.087	6.99201E-4
1627.636	12.7973E-4
1629.185	19.0547E-4
1630.734	23.1822E-4
1632.282	27.7833E-4
1633.831	31.4127E-4
1635.379	34.4254E-4
1636.927	36.3849E-4
1638.475	38.9854E-4
1640.023	40.2219E-4
1641.571	41.8037E-4
1643.118	44.4399E-4
1644.665	45.0971E-4
1646.212	45.583E-4
1647.759	46.4138E-4
1649.306	47.0093E-4
1650.852	45.6424E-4
1652.398	42.9067E-4
1653.944	41.1478E-4
1655.49	37.343E-4
1657.036	36.1943E-4
1658.582	31.6378E-4
1660.127	35.4925E-4
1661.672	30.877E-4
1663.217	32.6709E-4
1664.762	27.2119E-4
1666.306	29.3892E-4
1667.851	21.5086E-4
1669.395	22.9941E-4
1670.939	18.1361E-4
1672.483	17.1765E-4
1674.027	15.532E-4
1675.57	14.846E-4
1677.113	17.8499E-4
1678.657	24.5492E-4
1680.2	36.4585E-4
1681.742	45.7661E-4
1683.285	51.4015E-4
1684.827	65.8268E-4
1686.369	86.1098E-4
1687.911	97.6658E-4
1689.453	1.17372E-2
1690.995	1.43126E-2
1692.536	1.54356E-2
1694.078	1.50942E-2
1695.619	1.56447E-2
1697.16	1.55677E-2
1698.7	1.58684E-2
1700.241	1.54169E-2
1701.781	1.53145E-2
1703.321	1.47696E-2
1704.861	1.42113E-2
1706.401	1.19692E-2
1707.941	1.16472E-2
1709.48	1.06502E-2
