Data from SAN_Units14_00001.txt Node
Date: Fri Apr 03 16:12:24 CEST 2015
User: User
Spectrometer: NQ51A0689
Autoset integration time: false
Trigger mode: 0
Integration Time (sec): 1.000000E0
Scans to average: 1
Nonlinearity correction enabled: false
Boxcar width: 2
Stray light correction enabled: false
XAxis mode: Wavelengths
Stop averaging: false
Storing dark spectrum: false
Number of Pixels in Spectrum: 512
>>>>>Begin Spectral Data<<<<<
899.175	0E0
900.806	0E0
902.437	0E0
904.067	0E0
905.698	0E0
907.328	0E0
908.958	0E0
910.588	0E0
912.218	0E0
913.847	0E0
915.477	0E0
917.106	0E0
918.735	0E0
920.364	0E0
921.993	0E0
923.621	0E0
925.25	0E0
926.878	0E0
928.506	0E0
930.134	0E0
931.762	0E0
933.389	0E0
935.016	0E0
936.644	0E0
938.271	0E0
939.897	0E0
941.524	0E0
943.151	0E0
944.777	0E0
946.403	0E0
948.029	0E0
949.655	0E0
951.28	0E0
952.906	0E0
954.531	0E0
956.156	0E0
957.781	0E0
959.406	0E0
961.03	0E0
962.655	0E0
964.279	0E0
965.903	0E0
967.527	0E0
969.15	0E0
970.774	0E0
972.397	0E0
974.02	0E0
975.643	0E0
977.266	0E0
978.889	0E0
980.511	0E0
982.133	0E0
983.756	0E0
985.378	0E0
986.999	0E0
988.621	0E0
990.242	0E0
991.864	0E0
993.485	0E0
995.105	0E0
996.726	0E0
998.347	0E0
999.967	0E0
1001.587	0E0
1003.207	0E0
1004.827	0E0
1006.447	0E0
1008.066	0E0
1009.686	0E0
1011.305	0E0
1012.924	0E0
1014.543	0E0
1016.161	0E0
1017.78	0E0
1019.398	16.8801E-6
1021.016	0E0
1022.634	1.02207E-4
1024.252	0E0
1025.869	73.1679E-6
1027.487	0E0
1029.104	8.25605E-6
1030.721	0E0
1032.338	0E0
1033.954	0E0
1035.571	95.9567E-6
1037.187	2.17709E-4
1038.803	3.29011E-4
1040.419	3.90436E-4
1042.035	4.89093E-4
1043.651	4.28474E-4
1045.266	4.5647E-4
1046.882	3.16599E-4
1048.497	3.36533E-4
1050.112	2.0847E-4
1051.726	3.16284E-4
1053.341	2.26166E-4
1054.955	2.65748E-4
1056.57	2.12575E-4
1058.184	2.71773E-4
1059.797	1.59666E-4
1061.411	1.62777E-4
1063.025	2.85037E-4
1064.638	2.59872E-4
1066.251	4.08639E-4
1067.864	4.27044E-4
1069.477	5.3138E-4
1071.09	5.05633E-4
1072.702	4.8417E-4
1074.314	4.27026E-4
1075.927	4.0298E-4
1077.539	3.70093E-4
1079.15	2.40242E-4
1080.762	3.21232E-4
1082.373	2.33718E-4
1083.985	2.95001E-4
1085.596	2.47946E-4
1087.207	3.20412E-4
1088.817	3.49729E-4
1090.428	4.36231E-4
1092.038	4.85803E-4
1093.648	5.39747E-4
1095.258	6.33006E-4
1096.868	7.12419E-4
1098.478	6.23321E-4
1100.087	6.61566E-4
1101.697	6.4523E-4
1103.306	6.9936E-4
1104.915	6.04031E-4
1106.523	7.12949E-4
1108.132	6.58209E-4
1109.74	8.08381E-4
1111.349	8.78056E-4
1112.957	9.0989E-4
1114.565	10.6047E-4
1116.172	11.6896E-4
1117.78	13.3281E-4
1119.387	14.4282E-4
1120.994	17.2759E-4
1122.601	19.3191E-4
1124.208	22.7014E-4
1125.815	24.0981E-4
1127.421	27.5737E-4
1129.028	30.6574E-4
1130.634	34.5233E-4
1132.24	38.7727E-4
1133.846	45.4467E-4
1135.451	51.4979E-4
1137.057	57.9534E-4
1138.662	64.0101E-4
1140.267	68.8199E-4
1141.872	72.2726E-4
1143.476	73.5921E-4
1145.081	74.6429E-4
1146.685	73.6538E-4
1148.29	72.0662E-4
1149.894	67.7633E-4
1151.497	63.7843E-4
1153.101	57.7137E-4
1154.704	51.4213E-4
1156.308	43.7498E-4
1157.911	37.5218E-4
1159.514	31.1515E-4
1161.117	26.0609E-4
1162.719	21.8485E-4
1164.322	19.3438E-4
1165.924	16.2503E-4
1167.526	15.0767E-4
1169.128	14.1619E-4
1170.729	12.7725E-4
1172.331	11.8325E-4
1173.932	11.8691E-4
1175.533	11.8016E-4
1177.134	11.0488E-4
1178.735	12.0563E-4
1180.336	12.1043E-4
1181.936	13.2414E-4
1183.537	13.2473E-4
1185.137	15.2904E-4
1186.737	17.4788E-4
1188.336	21.0283E-4
1189.936	23.8063E-4
1191.535	26.8301E-4
1193.135	30.5815E-4
1194.734	31.8858E-4
1196.332	34.705E-4
1197.931	36.4499E-4
1199.53	38.5964E-4
1201.128	40.3935E-4
1202.726	42.083E-4
1204.324	42.1726E-4
1205.922	42.01E-4
1207.519	41.6654E-4
1209.117	39.846E-4
1210.714	38.6518E-4
1212.311	36.435E-4
1213.908	35.2335E-4
1215.505	33.261E-4
1217.101	32.182E-4
1218.698	30.5205E-4
1220.294	29.8476E-4
1221.89	28.5194E-4
1223.486	27.607E-4
1225.081	25.8558E-4
1226.677	24.8134E-4
1228.272	22.5616E-4
1229.867	21.0669E-4
1231.462	19.57E-4
1233.057	17.5371E-4
1234.651	16.065E-4
1236.246	15.8086E-4
1237.84	14.203E-4
1239.434	13.0736E-4
1241.028	12.9591E-4
1242.622	12.6349E-4
1244.215	11.1475E-4
1245.809	11.6782E-4
1247.402	10.5609E-4
1248.995	10.4251E-4
1250.587	8.73722E-4
1252.18	8.3118E-4
1253.773	6.77298E-4
1255.365	7.50485E-4
1256.957	5.9519E-4
1258.549	6.35547E-4
1260.141	5.74434E-4
1261.732	5.91845E-4
1263.323	5.10644E-4
1264.915	5.21009E-4
1266.506	5.02957E-4
1268.096	5.32441E-4
1269.687	4.90998E-4
1271.278	5.07446E-4
1272.868	4.1002E-4
1274.458	4.46173E-4
1276.048	4.51697E-4
1277.638	4.81932E-4
1279.227	3.2162E-4
1280.817	3.65919E-4
1282.406	2.38586E-4
1283.995	1.88266E-4
1285.584	1.36537E-4
1287.172	2.48976E-4
1288.761	2.63191E-4
1290.349	3.32156E-4
1291.937	3.406E-4
1293.525	3.27333E-4
1295.113	3.5622E-4
1296.701	3.5489E-4
1298.288	3.86431E-4
1299.875	3.50801E-4
1301.462	4.48309E-4
1303.049	4.58467E-4
1304.636	4.1928E-4
1306.223	3.42743E-4
1307.809	3.85487E-4
1309.395	3.69387E-4
1310.981	3.30692E-4
1312.567	4.14243E-4
1314.153	4.16584E-4
1315.738	3.79033E-4
1317.323	3.21216E-4
1318.908	3.27607E-4
1320.493	3.03543E-4
1322.078	3.41622E-4
1323.663	4.20905E-4
1325.247	4.17501E-4
1326.831	3.71633E-4
1328.415	2.9838E-4
1329.999	2.2436E-4
1331.583	1.43857E-4
1333.166	70.3936E-6
1334.749	53.3375E-6
1336.333	16.5688E-6
1337.915	0E0
1339.498	0E0
1341.081	0E0
1342.663	0E0
1344.245	0E0
1345.827	0E0
1347.409	0E0
1348.991	0E0
1350.572	0E0
1352.154	0E0
1353.735	0E0
1355.316	0E0
1356.897	0E0
1358.477	0E0
1360.058	0E0
1361.638	0E0
1363.218	0E0
1364.798	0E0
1366.377	0E0
1367.957	0E0
1369.536	0E0
1371.115	0E0
1372.694	0E0
1374.273	0E0
1375.852	0E0
1377.43	0E0
1379.008	0E0
1380.587	0E0
1382.164	0E0
1383.742	0E0
1385.32	0E0
1386.897	0E0
1388.474	0E0
1390.051	0E0
1391.628	0E0
1393.205	0E0
1394.781	0E0
1396.357	0E0
1397.933	0E0
1399.509	0E0
1401.085	0E0
1402.66	0E0
1404.236	11.7318E-6
1405.811	2.80952E-4
1407.386	6.33607E-4
1408.961	7.77311E-4
1410.535	9.31153E-4
1412.11	10.8911E-4
1413.684	11.9624E-4
1415.258	12.6072E-4
1416.832	12.4247E-4
1418.406	11.4649E-4
1419.979	10.2803E-4
1421.553	7.89104E-4
1423.126	6.8111E-4
1424.699	4.63492E-4
1426.272	4.11393E-4
1427.844	1.25133E-4
1429.417	83.5554E-6
1430.989	0E0
1432.561	0E0
1434.133	0E0
1435.705	0E0
1437.276	0E0
1438.848	0E0
1440.419	0E0
1441.99	0E0
1443.561	0E0
1445.131	0E0
1446.702	0E0
1448.272	0E0
1449.842	0E0
1451.412	0E0
1452.982	0E0
1454.551	0E0
1456.121	0E0
1457.69	0E0
1459.259	0E0
1460.828	0E0
1462.396	0E0
1463.965	0E0
1465.533	0E0
1467.101	0E0
1468.669	0E0
1470.237	0E0
1471.804	0E0
1473.372	0E0
1474.939	0E0
1476.506	0E0
1478.073	0E0
1479.639	0E0
1481.206	0E0
1482.772	0E0
1484.338	0E0
1485.904	0E0
1487.47	0E0
1489.035	0E0
1490.601	0E0
1492.166	0E0
1493.731	0E0
1495.296	0E0
1496.86	0E0
1498.425	0E0
1499.989	0E0
1501.553	0E0
1503.117	0E0
1504.681	0E0
1506.244	0E0
1507.808	0E0
1509.371	0E0
1510.934	0E0
1512.497	0E0
1514.059	0E0
1515.622	0E0
1517.184	0E0
1518.746	0E0
1520.308	0E0
1521.87	0E0
1523.431	0E0
1524.993	0E0
1526.554	0E0
1528.115	0E0
1529.676	0E0
1531.236	0E0
1532.797	0E0
1534.357	0E0
1535.917	0E0
1537.477	0E0
1539.037	0E0
1540.596	0E0
1542.155	0E0
1543.715	0E0
1545.273	0E0
1546.832	0E0
1548.391	0E0
1549.949	0E0
1551.508	0E0
1553.066	0E0
1554.623	0E0
1556.181	0E0
1557.739	0E0
1559.296	0E0
1560.853	0E0
1562.41	0E0
1563.967	0E0
1565.523	0E0
1567.08	0E0
1568.636	0E0
1570.192	0E0
1571.748	0E0
1573.304	0E0
1574.859	0E0
1576.414	0E0
1577.969	0E0
1579.524	0E0
1581.079	0E0
1582.634	0E0
1584.188	0E0
1585.742	0E0
1587.296	0E0
1588.85	0E0
1590.404	0E0
1591.957	0E0
1593.51	0E0
1595.064	0E0
1596.616	0E0
1598.169	0E0
1599.722	0E0
1601.274	0E0
1602.826	0E0
1604.378	0E0
1605.93	0E0
1607.482	0E0
1609.033	0E0
1610.584	0E0
1612.135	0E0
1613.686	0E0
1615.237	0E0
1616.787	0E0
1618.338	0E0
1619.888	0E0
1621.438	0E0
1622.988	0E0
1624.537	0E0
1626.087	0E0
1627.636	0E0
1629.185	0E0
1630.734	0E0
1632.282	0E0
1633.831	1.97934E-4
1635.379	3.58613E-4
1636.927	4.63449E-4
1638.475	6.67685E-4
1640.023	5.42326E-4
1641.571	5.56861E-4
1643.118	6.92353E-4
1644.665	8.1835E-4
1646.212	9.14806E-4
1647.759	8.63625E-4
1649.306	8.48805E-4
1650.852	7.03534E-4
1652.398	4.78957E-4
1653.944	4.43001E-4
1655.49	5.493E-4
1657.036	9.80529E-4
1658.582	12.917E-4
1660.127	19.7596E-4
1661.672	21.0711E-4
1663.217	26.6903E-4
1664.762	28.4499E-4
1666.306	30.0603E-4
1667.851	27.8226E-4
1669.395	30.0914E-4
1670.939	29.1083E-4
1672.483	25.3064E-4
1674.027	26.2774E-4
1675.57	25.1298E-4
1677.113	24.0063E-4
1678.657	26.9057E-4
1680.2	34.7218E-4
1681.742	39.7889E-4
1683.285	46.65E-4
1684.827	42.3794E-4
1686.369	49.6512E-4
1687.911	50.1473E-4
1689.453	50.1245E-4
1690.995	50.8631E-4
1692.536	83.186E-4
1694.078	80.8753E-4
1695.619	90.0813E-4
1697.16	1.08455E-2
1698.7	1.12513E-2
1700.241	1.14281E-2
1701.781	1.26263E-2
1703.321	1.4057E-2
1704.861	1.49655E-2
1706.401	1.65016E-2
1707.941	1.62048E-2
1709.48	1.76073E-2
