Data from PA_PADirt_00001.txt Node
Date: Fri Apr 03 16:10:49 CEST 2015
User: User
Spectrometer: NQ51A0689
Autoset integration time: false
Trigger mode: 0
Integration Time (sec): 1.000000E0
Scans to average: 1
Nonlinearity correction enabled: false
Boxcar width: 2
Stray light correction enabled: false
XAxis mode: Wavelengths
Stop averaging: false
Storing dark spectrum: false
Number of Pixels in Spectrum: 512
>>>>>Begin Spectral Data<<<<<
899.175	0E0
900.806	0E0
902.437	0E0
904.067	0E0
905.698	0E0
907.328	0E0
908.958	0E0
910.588	0E0
912.218	0E0
913.847	0E0
915.477	0E0
917.106	0E0
918.735	0E0
920.364	0E0
921.993	0E0
923.621	0E0
925.25	0E0
926.878	0E0
928.506	0E0
930.134	0E0
931.762	0E0
933.389	0E0
935.016	0E0
936.644	0E0
938.271	0E0
939.897	0E0
941.524	0E0
943.151	0E0
944.777	0E0
946.403	0E0
948.029	0E0
949.655	0E0
951.28	0E0
952.906	0E0
954.531	0E0
956.156	0E0
957.781	0E0
959.406	0E0
961.03	0E0
962.655	0E0
964.279	0E0
965.903	0E0
967.527	0E0
969.15	0E0
970.774	0E0
972.397	0E0
974.02	0E0
975.643	0E0
977.266	67.3936E-6
978.889	2.92073E-4
980.511	4.14956E-4
982.133	5.64447E-4
983.756	6.56714E-4
985.378	6.65478E-4
986.999	6.96786E-4
988.621	6.26096E-4
990.242	5.77117E-4
991.864	5.78713E-4
993.485	5.98714E-4
995.105	6.31303E-4
996.726	7.59176E-4
998.347	8.11204E-4
999.967	9.56595E-4
1001.587	9.3899E-4
1003.207	9.86183E-4
1004.827	9.80451E-4
1006.447	10.7675E-4
1008.066	10.8542E-4
1009.686	11.5719E-4
1011.305	12.2349E-4
1012.924	12.8382E-4
1014.543	13.5713E-4
1016.161	13.5083E-4
1017.78	14.1625E-4
1019.398	14.8806E-4
1021.016	14.2529E-4
1022.634	15.077E-4
1024.252	15.3287E-4
1025.869	17.2675E-4
1027.487	16.7631E-4
1029.104	18.623E-4
1030.721	18.5599E-4
1032.338	19.4916E-4
1033.954	18.7983E-4
1035.571	19.649E-4
1037.187	20.9092E-4
1038.803	21.3931E-4
1040.419	22.4186E-4
1042.035	23.126E-4
1043.651	23.7641E-4
1045.266	23.2902E-4
1046.882	22.3652E-4
1048.497	22.2501E-4
1050.112	21.968E-4
1051.726	21.1331E-4
1053.341	21.7438E-4
1054.955	22.0626E-4
1056.57	23.2287E-4
1058.184	24.4952E-4
1059.797	25.6003E-4
1061.411	25.3802E-4
1063.025	27.1006E-4
1064.638	26.5253E-4
1066.251	26.9929E-4
1067.864	26.9213E-4
1069.477	27.0939E-4
1071.09	27.0261E-4
1072.702	26.3207E-4
1074.314	25.8444E-4
1075.927	24.1648E-4
1077.539	22.8619E-4
1079.15	21.9828E-4
1080.762	21.5863E-4
1082.373	22.3106E-4
1083.985	23.136E-4
1085.596	24.1581E-4
1087.207	24.5303E-4
1088.817	24.7638E-4
1090.428	23.3021E-4
1092.038	23.1522E-4
1093.648	21.7726E-4
1095.258	21.37E-4
1096.868	21.8565E-4
1098.478	20.9776E-4
1100.087	21.209E-4
1101.697	21.1328E-4
1103.306	21.3516E-4
1104.915	20.5893E-4
1106.523	21.0455E-4
1108.132	19.8372E-4
1109.74	20.997E-4
1111.349	20.9981E-4
1112.957	20.3701E-4
1114.565	19.2268E-4
1116.172	19.4508E-4
1117.78	18.9717E-4
1119.387	17.8319E-4
1120.994	17.9738E-4
1122.601	18.4231E-4
1124.208	18.6153E-4
1125.815	16.2248E-4
1127.421	14.5201E-4
1129.028	12.5327E-4
1130.634	10.3157E-4
1132.24	6.88905E-4
1133.846	7.43786E-4
1135.451	7.22833E-4
1137.057	7.2502E-4
1138.662	6.69014E-4
1140.267	7.55355E-4
1141.872	5.95045E-4
1143.476	5.11281E-4
1145.081	3.87527E-4
1146.685	2.87461E-4
1148.29	3.01378E-4
1149.894	2.33865E-4
1151.497	2.39817E-4
1153.101	2.29186E-4
1154.704	2.75137E-4
1156.308	88.9373E-6
1157.911	0E0
1159.514	0E0
1161.117	0E0
1162.719	0E0
1164.322	0E0
1165.924	0E0
1167.526	0E0
1169.128	0E0
1170.729	0E0
1172.331	0E0
1173.932	0E0
1175.533	0E0
1177.134	0E0
1178.735	0E0
1180.336	0E0
1181.936	0E0
1183.537	0E0
1185.137	0E0
1186.737	0E0
1188.336	0E0
1189.936	0E0
1191.535	0E0
1193.135	2.07703E-4
1194.734	5.61043E-4
1196.332	8.7849E-4
1197.931	12.5652E-4
1199.53	16.5627E-4
1201.128	20.8455E-4
1202.726	24.1351E-4
1204.324	27.1312E-4
1205.922	28.8327E-4
1207.519	29.5633E-4
1209.117	29.1611E-4
1210.714	29.5858E-4
1212.311	29.5212E-4
1213.908	30.3646E-4
1215.505	30.0058E-4
1217.101	30.1016E-4
1218.698	29.7102E-4
1220.294	28.9843E-4
1221.89	27.8977E-4
1223.486	28.2721E-4
1225.081	27.2897E-4
1226.677	26.4825E-4
1228.272	26.4741E-4
1229.867	26.1317E-4
1231.462	24.7282E-4
1233.057	23.9428E-4
1234.651	23.6453E-4
1236.246	23.1357E-4
1237.84	22.8725E-4
1239.434	22.2714E-4
1241.028	22.561E-4
1242.622	21.9206E-4
1244.215	21.0789E-4
1245.809	19.7642E-4
1247.402	19.1679E-4
1248.995	17.8544E-4
1250.587	16.0157E-4
1252.18	14.9992E-4
1253.773	13.9041E-4
1255.365	13.7593E-4
1256.957	14.0027E-4
1258.549	14.445E-4
1260.141	14.3635E-4
1261.732	15.1413E-4
1263.323	15.0023E-4
1264.915	15.356E-4
1266.506	16.4475E-4
1268.096	17.4866E-4
1269.687	17.8581E-4
1271.278	17.9137E-4
1272.868	17.408E-4
1274.458	17.7857E-4
1276.048	17.5881E-4
1277.638	17.3524E-4
1279.227	17.1929E-4
1280.817	16.5047E-4
1282.406	15.6855E-4
1283.995	14.6095E-4
1285.584	14.4733E-4
1287.172	14.7466E-4
1288.761	15.4709E-4
1290.349	16.0401E-4
1291.937	16.6486E-4
1293.525	16.9153E-4
1295.113	16.3491E-4
1296.701	15.8526E-4
1298.288	14.8739E-4
1299.875	14.1231E-4
1301.462	14.3701E-4
1303.049	14.8305E-4
1304.636	14.4088E-4
1306.223	14.725E-4
1307.809	15.1202E-4
1309.395	14.7515E-4
1310.981	14.929E-4
1312.567	15.3655E-4
1314.153	14.9506E-4
1315.738	14.3891E-4
1317.323	12.7493E-4
1318.908	11.6105E-4
1320.493	10.8622E-4
1322.078	10.9178E-4
1323.663	10.145E-4
1325.247	10.6338E-4
1326.831	8.72407E-4
1328.415	6.96164E-4
1329.999	4.24156E-4
1331.583	3.34875E-4
1333.166	84.8333E-6
1334.749	46.3276E-6
1336.333	0E0
1337.915	0E0
1339.498	0E0
1341.081	0E0
1342.663	0E0
1344.245	0E0
1345.827	0E0
1347.409	0E0
1348.991	0E0
1350.572	0E0
1352.154	0E0
1353.735	0E0
1355.316	0E0
1356.897	0E0
1358.477	0E0
1360.058	0E0
1361.638	0E0
1363.218	0E0
1364.798	0E0
1366.377	0E0
1367.957	0E0
1369.536	0E0
1371.115	0E0
1372.694	0E0
1374.273	0E0
1375.852	0E0
1377.43	0E0
1379.008	0E0
1380.587	0E0
1382.164	0E0
1383.742	0E0
1385.32	0E0
1386.897	0E0
1388.474	0E0
1390.051	0E0
1391.628	0E0
1393.205	0E0
1394.781	0E0
1396.357	0E0
1397.933	0E0
1399.509	0E0
1401.085	0E0
1402.66	0E0
1404.236	0E0
1405.811	0E0
1407.386	0E0
1408.961	0E0
1410.535	0E0
1412.11	0E0
1413.684	0E0
1415.258	0E0
1416.832	0E0
1418.406	0E0
1419.979	0E0
1421.553	0E0
1423.126	0E0
1424.699	0E0
1426.272	0E0
1427.844	0E0
1429.417	0E0
1430.989	0E0
1432.561	0E0
1434.133	0E0
1435.705	0E0
1437.276	0E0
1438.848	0E0
1440.419	0E0
1441.99	0E0
1443.561	0E0
1445.131	0E0
1446.702	0E0
1448.272	0E0
1449.842	0E0
1451.412	0E0
1452.982	0E0
1454.551	0E0
1456.121	0E0
1457.69	0E0
1459.259	0E0
1460.828	0E0
1462.396	0E0
1463.965	0E0
1465.533	0E0
1467.101	0E0
1468.669	0E0
1470.237	0E0
1471.804	0E0
1473.372	0E0
1474.939	0E0
1476.506	0E0
1478.073	0E0
1479.639	0E0
1481.206	0E0
1482.772	0E0
1484.338	0E0
1485.904	0E0
1487.47	2.40048E-4
1489.035	4.8362E-4
1490.601	7.59518E-4
1492.166	10.3085E-4
1493.731	13.315E-4
1495.296	14.9696E-4
1496.86	17.492E-4
1498.425	19.2877E-4
1499.989	21.4916E-4
1501.553	22.1479E-4
1503.117	23.478E-4
1504.681	24.1014E-4
1506.244	25.7629E-4
1507.808	25.6153E-4
1509.371	27.418E-4
1510.934	28.9497E-4
1512.497	30.8694E-4
1514.059	32.2615E-4
1515.622	34.4106E-4
1517.184	36.0708E-4
1518.746	36.4161E-4
1520.308	38.0127E-4
1521.87	38.9811E-4
1523.431	40.7786E-4
1524.993	41.915E-4
1526.554	45.1487E-4
1528.115	46.7712E-4
1529.676	49.2928E-4
1531.236	52.1672E-4
1532.797	54.5414E-4
1534.357	56.5207E-4
1535.917	57.8089E-4
1537.477	59.171E-4
1539.037	59.713E-4
1540.596	61.2132E-4
1542.155	62.2247E-4
1543.715	61.9069E-4
1545.273	62.2266E-4
1546.832	59.3387E-4
1548.391	55.613E-4
1549.949	51.0408E-4
1551.508	47.5708E-4
1553.066	42.2739E-4
1554.623	39.266E-4
1556.181	35.7409E-4
1557.739	33.7688E-4
1559.296	32.104E-4
1560.853	30.7443E-4
1562.41	31.3047E-4
1563.967	31.5253E-4
1565.523	31.5263E-4
1567.08	32.3469E-4
1568.636	34.6128E-4
1570.192	35.2088E-4
1571.748	36.2797E-4
1573.304	37.1221E-4
1574.859	37.6148E-4
1576.414	36.7318E-4
1577.969	35.9083E-4
1579.524	35.8083E-4
1581.079	34.5717E-4
1582.634	31.8227E-4
1584.188	29.114E-4
1585.742	27.0564E-4
1587.296	24.7225E-4
1588.85	23.3847E-4
1590.404	24.5751E-4
1591.957	27.1224E-4
1593.51	29.4136E-4
1595.064	32.0143E-4
1596.616	34.1137E-4
1598.169	35.4966E-4
1599.722	36.2404E-4
1601.274	35.5544E-4
1602.826	34.2369E-4
1604.378	30.8392E-4
1605.93	27.857E-4
1607.482	23.2291E-4
1609.033	19.4496E-4
1610.584	15.4848E-4
1612.135	13.6135E-4
1613.686	10.8117E-4
1615.237	9.77472E-4
1616.787	7.82302E-4
1618.338	5.94021E-4
1619.888	4.09093E-4
1621.438	1.46474E-4
1622.988	0E0
1624.537	0E0
1626.087	0E0
1627.636	0E0
1629.185	0E0
1630.734	0E0
1632.282	0E0
1633.831	0E0
1635.379	0E0
1636.927	0E0
1638.475	0E0
1640.023	0E0
1641.571	0E0
1643.118	0E0
1644.665	0E0
1646.212	0E0
1647.759	0E0
1649.306	0E0
1650.852	0E0
1652.398	0E0
1653.944	0E0
1655.49	0E0
1657.036	0E0
1658.582	0E0
1660.127	0E0
1661.672	0E0
1663.217	0E0
1664.762	0E0
1666.306	0E0
1667.851	0E0
1669.395	0E0
1670.939	0E0
1672.483	0E0
1674.027	0E0
1675.57	0E0
1677.113	0E0
1678.657	0E0
1680.2	0E0
1681.742	0E0
1683.285	0E0
1684.827	0E0
1686.369	0E0
1687.911	0E0
1689.453	0E0
1690.995	0E0
1692.536	2.66235E-4
1694.078	10.7486E-4
1695.619	40.1058E-4
1697.16	58.4649E-4
1698.7	82.9586E-4
1700.241	1.04825E-2
1701.781	1.47053E-2
1703.321	1.68955E-2
1704.861	1.99457E-2
1706.401	2.0868E-2
1707.941	2.26571E-2
1709.48	2.16753E-2
