Data from PP_PPTransparent_00000.txt Node
Date: Fri Apr 03 16:08:09 CEST 2015
User: User
Spectrometer: NQ51A0689
Autoset integration time: false
Trigger mode: 0
Integration Time (sec): 1.000000E0
Scans to average: 1
Nonlinearity correction enabled: false
Boxcar width: 2
Stray light correction enabled: false
XAxis mode: Wavelengths
Stop averaging: false
Storing dark spectrum: false
Number of Pixels in Spectrum: 512
>>>>>Begin Spectral Data<<<<<
899.175	0E0
900.806	0E0
902.437	0E0
904.067	0E0
905.698	0E0
907.328	0E0
908.958	0E0
910.588	0E0
912.218	0E0
913.847	0E0
915.477	0E0
917.106	0E0
918.735	0E0
920.364	0E0
921.993	0E0
923.621	0E0
925.25	0E0
926.878	0E0
928.506	0E0
930.134	0E0
931.762	0E0
933.389	0E0
935.016	0E0
936.644	0E0
938.271	49.7201E-6
939.897	0E0
941.524	0E0
943.151	0E0
944.777	0E0
946.403	0E0
948.029	0E0
949.655	0E0
951.28	0E0
952.906	0E0
954.531	0E0
956.156	0E0
957.781	0E0
959.406	0E0
961.03	0E0
962.655	0E0
964.279	0E0
965.903	0E0
967.527	0E0
969.15	0E0
970.774	0E0
972.397	0E0
974.02	0E0
975.643	0E0
977.266	0E0
978.889	0E0
980.511	0E0
982.133	0E0
983.756	0E0
985.378	0E0
986.999	0E0
988.621	0E0
990.242	0E0
991.864	0E0
993.485	0E0
995.105	0E0
996.726	0E0
998.347	0E0
999.967	0E0
1001.587	0E0
1003.207	0E0
1004.827	0E0
1006.447	0E0
1008.066	0E0
1009.686	0E0
1011.305	0E0
1012.924	0E0
1014.543	0E0
1016.161	0E0
1017.78	0E0
1019.398	0E0
1021.016	0E0
1022.634	0E0
1024.252	0E0
1025.869	0E0
1027.487	0E0
1029.104	0E0
1030.721	0E0
1032.338	0E0
1033.954	0E0
1035.571	0E0
1037.187	0E0
1038.803	0E0
1040.419	0E0
1042.035	0E0
1043.651	0E0
1045.266	0E0
1046.882	0E0
1048.497	0E0
1050.112	0E0
1051.726	0E0
1053.341	0E0
1054.955	0E0
1056.57	0E0
1058.184	0E0
1059.797	0E0
1061.411	0E0
1063.025	0E0
1064.638	0E0
1066.251	0E0
1067.864	0E0
1069.477	0E0
1071.09	0E0
1072.702	0E0
1074.314	0E0
1075.927	0E0
1077.539	0E0
1079.15	0E0
1080.762	0E0
1082.373	0E0
1083.985	0E0
1085.596	0E0
1087.207	0E0
1088.817	0E0
1090.428	0E0
1092.038	0E0
1093.648	0E0
1095.258	0E0
1096.868	0E0
1098.478	0E0
1100.087	0E0
1101.697	0E0
1103.306	0E0
1104.915	0E0
1106.523	0E0
1108.132	0E0
1109.74	0E0
1111.349	0E0
1112.957	0E0
1114.565	0E0
1116.172	0E0
1117.78	0E0
1119.387	0E0
1120.994	0E0
1122.601	0E0
1124.208	0E0
1125.815	0E0
1127.421	0E0
1129.028	0E0
1130.634	0E0
1132.24	0E0
1133.846	0E0
1135.451	0E0
1137.057	0E0
1138.662	0E0
1140.267	0E0
1141.872	0E0
1143.476	0E0
1145.081	0E0
1146.685	0E0
1148.29	0E0
1149.894	4.45297E-4
1151.497	9.30232E-4
1153.101	12.4268E-4
1154.704	14.7727E-4
1156.308	14.5257E-4
1157.911	13.1823E-4
1159.514	11.95E-4
1161.117	10.7027E-4
1162.719	10.9426E-4
1164.322	11.6245E-4
1165.924	14.2216E-4
1167.526	17.0276E-4
1169.128	20.944E-4
1170.729	23.8628E-4
1172.331	27.5281E-4
1173.932	30.7485E-4
1175.533	33.9909E-4
1177.134	35.7791E-4
1178.735	38.4723E-4
1180.336	41.7419E-4
1181.936	46.4139E-4
1183.537	53.2111E-4
1185.137	61.8221E-4
1186.737	72.012E-4
1188.336	82.6031E-4
1189.936	92.1952E-4
1191.535	99.2473E-4
1193.135	1.05226E-2
1194.734	1.06656E-2
1196.332	1.06517E-2
1197.931	1.05452E-2
1199.53	1.03461E-2
1201.128	1.02815E-2
1202.726	1.02288E-2
1204.324	1.02646E-2
1205.922	1.02546E-2
1207.519	1.03843E-2
1209.117	1.05085E-2
1210.714	1.07269E-2
1212.311	1.09112E-2
1213.908	1.11244E-2
1215.505	1.11561E-2
1217.101	1.10398E-2
1218.698	1.08157E-2
1220.294	1.04575E-2
1221.89	99.6635E-4
1223.486	94.8173E-4
1225.081	88.0382E-4
1226.677	81.1605E-4
1228.272	73.6443E-4
1229.867	66.3184E-4
1231.462	58.9357E-4
1233.057	52.6133E-4
1234.651	46.5256E-4
1236.246	41.4402E-4
1237.84	36.9026E-4
1239.434	32.0177E-4
1241.028	27.8454E-4
1242.622	24.0135E-4
1244.215	19.9006E-4
1245.809	16.1958E-4
1247.402	13.3053E-4
1248.995	10.8146E-4
1250.587	6.56141E-4
1252.18	4.89506E-4
1253.773	1.76538E-4
1255.365	6.96665E-6
1256.957	0E0
1258.549	0E0
1260.141	0E0
1261.732	0E0
1263.323	0E0
1264.915	0E0
1266.506	0E0
1268.096	0E0
1269.687	0E0
1271.278	0E0
1272.868	0E0
1274.458	0E0
1276.048	0E0
1277.638	0E0
1279.227	0E0
1280.817	0E0
1282.406	0E0
1283.995	0E0
1285.584	0E0
1287.172	0E0
1288.761	0E0
1290.349	0E0
1291.937	0E0
1293.525	0E0
1295.113	0E0
1296.701	0E0
1298.288	0E0
1299.875	0E0
1301.462	0E0
1303.049	0E0
1304.636	0E0
1306.223	0E0
1307.809	0E0
1309.395	0E0
1310.981	0E0
1312.567	0E0
1314.153	0E0
1315.738	0E0
1317.323	0E0
1318.908	0E0
1320.493	0E0
1322.078	0E0
1323.663	0E0
1325.247	0E0
1326.831	0E0
1328.415	0E0
1329.999	0E0
1331.583	0E0
1333.166	0E0
1334.749	0E0
1336.333	0E0
1337.915	0E0
1339.498	0E0
1341.081	0E0
1342.663	0E0
1344.245	0E0
1345.827	0E0
1347.409	0E0
1348.991	0E0
1350.572	0E0
1352.154	0E0
1353.735	0E0
1355.316	0E0
1356.897	0E0
1358.477	0E0
1360.058	0E0
1361.638	0E0
1363.218	0E0
1364.798	0E0
1366.377	0E0
1367.957	12.2571E-6
1369.536	98.9765E-6
1371.115	1.79595E-4
1372.694	2.49159E-4
1374.273	3.98788E-4
1375.852	3.67539E-4
1377.43	2.68522E-4
1379.008	2.45261E-4
1380.587	3.00729E-4
1382.164	2.81051E-4
1383.742	5.15218E-4
1385.32	8.07599E-4
1386.897	10.0472E-4
1388.474	12.7735E-4
1390.051	16.847E-4
1391.628	20.2857E-4
1393.205	26.8971E-4
1394.781	34.1585E-4
1396.357	39.9899E-4
1397.933	43.9307E-4
1399.509	44.7152E-4
1401.085	41.8018E-4
1402.66	38.0447E-4
1404.236	32.0217E-4
1405.811	26.6493E-4
1407.386	23.7841E-4
1408.961	22.5744E-4
1410.535	22.6345E-4
1412.11	25.3235E-4
1413.684	28.5794E-4
1415.258	30.6969E-4
1416.832	32.0499E-4
1418.406	30.6497E-4
1419.979	28.823E-4
1421.553	24.1662E-4
1423.126	20.7061E-4
1424.699	16.4764E-4
1426.272	14.7161E-4
1427.844	12.6381E-4
1429.417	12.503E-4
1430.989	11.7215E-4
1432.561	11.5697E-4
1434.133	10.2388E-4
1435.705	9.04477E-4
1437.276	9.03204E-4
1438.848	8.48101E-4
1440.419	7.95657E-4
1441.99	7.27573E-4
1443.561	7.18467E-4
1445.131	5.15167E-4
1446.702	3.77723E-4
1448.272	1.90457E-4
1449.842	57.507E-6
1451.412	0E0
1452.982	0E0
1454.551	0E0
1456.121	0E0
1457.69	0E0
1459.259	0E0
1460.828	0E0
1462.396	0E0
1463.965	0E0
1465.533	0E0
1467.101	0E0
1468.669	0E0
1470.237	0E0
1471.804	0E0
1473.372	0E0
1474.939	0E0
1476.506	0E0
1478.073	0E0
1479.639	0E0
1481.206	0E0
1482.772	0E0
1484.338	0E0
1485.904	0E0
1487.47	0E0
1489.035	0E0
1490.601	0E0
1492.166	0E0
1493.731	0E0
1495.296	0E0
1496.86	0E0
1498.425	0E0
1499.989	0E0
1501.553	0E0
1503.117	0E0
1504.681	0E0
1506.244	0E0
1507.808	0E0
1509.371	0E0
1510.934	0E0
1512.497	0E0
1514.059	0E0
1515.622	0E0
1517.184	0E0
1518.746	0E0
1520.308	0E0
1521.87	0E0
1523.431	0E0
1524.993	0E0
1526.554	0E0
1528.115	0E0
1529.676	0E0
1531.236	0E0
1532.797	0E0
1534.357	0E0
1535.917	0E0
1537.477	0E0
1539.037	0E0
1540.596	0E0
1542.155	0E0
1543.715	0E0
1545.273	0E0
1546.832	0E0
1548.391	0E0
1549.949	0E0
1551.508	0E0
1553.066	0E0
1554.623	0E0
1556.181	0E0
1557.739	0E0
1559.296	0E0
1560.853	0E0
1562.41	0E0
1563.967	0E0
1565.523	0E0
1567.08	0E0
1568.636	0E0
1570.192	0E0
1571.748	0E0
1573.304	0E0
1574.859	0E0
1576.414	0E0
1577.969	0E0
1579.524	0E0
1581.079	0E0
1582.634	0E0
1584.188	0E0
1585.742	0E0
1587.296	0E0
1588.85	0E0
1590.404	0E0
1591.957	0E0
1593.51	0E0
1595.064	0E0
1596.616	0E0
1598.169	0E0
1599.722	0E0
1601.274	0E0
1602.826	0E0
1604.378	0E0
1605.93	0E0
1607.482	0E0
1609.033	0E0
1610.584	0E0
1612.135	0E0
1613.686	0E0
1615.237	0E0
1616.787	0E0
1618.338	0E0
1619.888	0E0
1621.438	0E0
1622.988	0E0
1624.537	0E0
1626.087	0E0
1627.636	0E0
1629.185	0E0
1630.734	0E0
1632.282	0E0
1633.831	0E0
1635.379	0E0
1636.927	0E0
1638.475	0E0
1640.023	0E0
1641.571	0E0
1643.118	0E0
1644.665	0E0
1646.212	0E0
1647.759	0E0
1649.306	0E0
1650.852	0E0
1652.398	0E0
1653.944	0E0
1655.49	0E0
1657.036	0E0
1658.582	0E0
1660.127	0E0
1661.672	0E0
1663.217	0E0
1664.762	0E0
1666.306	0E0
1667.851	0E0
1669.395	0E0
1670.939	0E0
1672.483	0E0
1674.027	0E0
1675.57	0E0
1677.113	0E0
1678.657	0E0
1680.2	0E0
1681.742	0E0
1683.285	0E0
1684.827	0E0
1686.369	12.6407E-4
1687.911	25.1924E-4
1689.453	50.0972E-4
1690.995	71.3379E-4
1692.536	1.13623E-2
1694.078	1.19355E-2
1695.619	1.4563E-2
1697.16	1.51647E-2
1698.7	1.64257E-2
1700.241	1.60353E-2
1701.781	1.785E-2
1703.321	1.95049E-2
1704.861	1.97067E-2
1706.401	2.08585E-2
1707.941	2.09766E-2
1709.48	2.10766E-2
