Data from PP_PPBlack_00000.txt Node
Date: Fri Apr 03 16:08:09 CEST 2015
User: User
Spectrometer: NQ51A0689
Autoset integration time: false
Trigger mode: 0
Integration Time (sec): 1.000000E0
Scans to average: 1
Nonlinearity correction enabled: false
Boxcar width: 2
Stray light correction enabled: false
XAxis mode: Wavelengths
Stop averaging: false
Storing dark spectrum: false
Number of Pixels in Spectrum: 512
>>>>>Begin Spectral Data<<<<<
899.175	0E0
900.806	0E0
902.437	0E0
904.067	0E0
905.698	0E0
907.328	0E0
908.958	0E0
910.588	0E0
912.218	0E0
913.847	0E0
915.477	0E0
917.106	0E0
918.735	0E0
920.364	0E0
921.993	0E0
923.621	0E0
925.25	0E0
926.878	0E0
928.506	0E0
930.134	0E0
931.762	0E0
933.389	0E0
935.016	0E0
936.644	0E0
938.271	0E0
939.897	0E0
941.524	0E0
943.151	0E0
944.777	0E0
946.403	0E0
948.029	0E0
949.655	0E0
951.28	0E0
952.906	0E0
954.531	0E0
956.156	0E0
957.781	0E0
959.406	0E0
961.03	0E0
962.655	0E0
964.279	0E0
965.903	0E0
967.527	0E0
969.15	0E0
970.774	0E0
972.397	34.6652E-6
974.02	0E0
975.643	1.15808E-4
977.266	53.2413E-6
978.889	1.7432E-4
980.511	1.33267E-4
982.133	3.15219E-4
983.756	3.53092E-4
985.378	3.96557E-4
986.999	3.73293E-4
988.621	3.84181E-4
990.242	3.49987E-4
991.864	4.22743E-4
993.485	4.2261E-4
995.105	6.0825E-4
996.726	6.56875E-4
998.347	7.92968E-4
999.967	8.0605E-4
1001.587	7.99297E-4
1003.207	7.18821E-4
1004.827	7.77428E-4
1006.447	6.72662E-4
1008.066	6.74197E-4
1009.686	7.78349E-4
1011.305	8.40805E-4
1012.924	7.94532E-4
1014.543	8.51351E-4
1016.161	9.23694E-4
1017.78	8.32448E-4
1019.398	8.70455E-4
1021.016	8.28279E-4
1022.634	10.9634E-4
1024.252	9.90816E-4
1025.869	11.4437E-4
1027.487	10.8945E-4
1029.104	12.3109E-4
1030.721	10.7151E-4
1032.338	11.3774E-4
1033.954	11.2181E-4
1035.571	12.1175E-4
1037.187	12.5993E-4
1038.803	12.4752E-4
1040.419	13.6058E-4
1042.035	13.7883E-4
1043.651	13.9397E-4
1045.266	14.3868E-4
1046.882	13.6296E-4
1048.497	13.8848E-4
1050.112	13.0382E-4
1051.726	13.8421E-4
1053.341	12.7285E-4
1054.955	14.0251E-4
1056.57	14.0568E-4
1058.184	15.4432E-4
1059.797	13.8007E-4
1061.411	14.4482E-4
1063.025	14.562E-4
1064.638	13.9808E-4
1066.251	14.4516E-4
1067.864	15.2862E-4
1069.477	15.8067E-4
1071.09	15.8284E-4
1072.702	15.7968E-4
1074.314	15.8619E-4
1075.927	15.5368E-4
1077.539	14.7937E-4
1079.15	14.1953E-4
1080.762	15.1525E-4
1082.373	14.8312E-4
1083.985	14.8454E-4
1085.596	15.2398E-4
1087.207	15.3359E-4
1088.817	14.7638E-4
1090.428	14.7712E-4
1092.038	14.57E-4
1093.648	13.9098E-4
1095.258	14.186E-4
1096.868	14.7859E-4
1098.478	13.4911E-4
1100.087	15.0073E-4
1101.697	14.6719E-4
1103.306	15.6219E-4
1104.915	14.605E-4
1106.523	15.9537E-4
1108.132	14.5184E-4
1109.74	15.4466E-4
1111.349	14.8765E-4
1112.957	14.9412E-4
1114.565	14.166E-4
1116.172	14.2619E-4
1117.78	14.1999E-4
1119.387	13.4466E-4
1120.994	13.9793E-4
1122.601	14.9552E-4
1124.208	14.335E-4
1125.815	13.1911E-4
1127.421	12.3002E-4
1129.028	11.2667E-4
1130.634	8.88553E-4
1132.24	8.10174E-4
1133.846	8.1023E-4
1135.451	8.12474E-4
1137.057	8.00703E-4
1138.662	8.12536E-4
1140.267	8.38036E-4
1141.872	7.56663E-4
1143.476	6.98412E-4
1145.081	5.4175E-4
1146.685	4.40454E-4
1148.29	4.26265E-4
1149.894	3.41223E-4
1151.497	3.82105E-4
1153.101	3.33077E-4
1154.704	3.94422E-4
1156.308	1.76848E-4
1157.911	1.36593E-4
1159.514	0E0
1161.117	0E0
1162.719	0E0
1164.322	0E0
1165.924	0E0
1167.526	0E0
1169.128	0E0
1170.729	0E0
1172.331	0E0
1173.932	0E0
1175.533	0E0
1177.134	0E0
1178.735	0E0
1180.336	0E0
1181.936	0E0
1183.537	0E0
1185.137	0E0
1186.737	0E0
1188.336	0E0
1189.936	0E0
1191.535	0E0
1193.135	0E0
1194.734	0E0
1196.332	0E0
1197.931	0E0
1199.53	0E0
1201.128	38.1481E-6
1202.726	63.9702E-6
1204.324	2.20249E-4
1205.922	2.16633E-4
1207.519	2.57508E-4
1209.117	2.47454E-4
1210.714	3.19749E-4
1212.311	3.06629E-4
1213.908	3.68933E-4
1215.505	4.31734E-4
1217.101	5.10061E-4
1218.698	6.01292E-4
1220.294	6.89219E-4
1221.89	8.37723E-4
1223.486	9.44924E-4
1225.081	9.68954E-4
1226.677	9.96058E-4
1228.272	10.3548E-4
1229.867	9.52882E-4
1231.462	9.17556E-4
1233.057	9.18146E-4
1234.651	9.489E-4
1236.246	9.72604E-4
1237.84	9.45184E-4
1239.434	9.57734E-4
1241.028	10.4526E-4
1242.622	9.83283E-4
1244.215	10.5676E-4
1245.809	10.8143E-4
1247.402	11.5999E-4
1248.995	11.0734E-4
1250.587	10.8155E-4
1252.18	10.1691E-4
1253.773	10.0489E-4
1255.365	9.54316E-4
1256.957	9.49526E-4
1258.549	10.3284E-4
1260.141	9.94956E-4
1261.732	10.694E-4
1263.323	10.4266E-4
1264.915	10.5974E-4
1266.506	10.5471E-4
1268.096	10.6748E-4
1269.687	11.5347E-4
1271.278	11.165E-4
1272.868	11.537E-4
1274.458	12.074E-4
1276.048	12.364E-4
1277.638	11.7892E-4
1279.227	11.4282E-4
1280.817	11.0989E-4
1282.406	10.3541E-4
1283.995	10.6455E-4
1285.584	10.6369E-4
1287.172	11.9601E-4
1288.761	12.6615E-4
1290.349	13.2189E-4
1291.937	13.615E-4
1293.525	13.2342E-4
1295.113	13.5154E-4
1296.701	13.1421E-4
1298.288	13.4239E-4
1299.875	13.2794E-4
1301.462	14.0456E-4
1303.049	14.0011E-4
1304.636	14.0539E-4
1306.223	14.0564E-4
1307.809	14.1075E-4
1309.395	14.348E-4
1310.981	14.7646E-4
1312.567	15.1791E-4
1314.153	14.8036E-4
1315.738	14.6447E-4
1317.323	14.2863E-4
1318.908	13.1044E-4
1320.493	13.4336E-4
1322.078	13.7934E-4
1323.663	13.6472E-4
1325.247	13.7304E-4
1326.831	13.3842E-4
1328.415	12.1902E-4
1329.999	11.3833E-4
1331.583	11.2875E-4
1333.166	10.5598E-4
1334.749	10.6596E-4
1336.333	10.4243E-4
1337.915	9.00262E-4
1339.498	8.56097E-4
1341.081	7.37224E-4
1342.663	6.99709E-4
1344.245	6.27074E-4
1345.827	6.21699E-4
1347.409	3.91696E-4
1348.991	2.5737E-4
1350.572	63.4601E-6
1352.154	0E0
1353.735	0E0
1355.316	0E0
1356.897	0E0
1358.477	0E0
1360.058	0E0
1361.638	0E0
1363.218	0E0
1364.798	0E0
1366.377	0E0
1367.957	0E0
1369.536	0E0
1371.115	0E0
1372.694	0E0
1374.273	0E0
1375.852	0E0
1377.43	0E0
1379.008	0E0
1380.587	0E0
1382.164	0E0
1383.742	0E0
1385.32	0E0
1386.897	0E0
1388.474	0E0
1390.051	0E0
1391.628	0E0
1393.205	0E0
1394.781	0E0
1396.357	0E0
1397.933	0E0
1399.509	0E0
1401.085	0E0
1402.66	0E0
1404.236	0E0
1405.811	0E0
1407.386	0E0
1408.961	0E0
1410.535	0E0
1412.11	0E0
1413.684	0E0
1415.258	0E0
1416.832	0E0
1418.406	0E0
1419.979	0E0
1421.553	0E0
1423.126	0E0
1424.699	0E0
1426.272	0E0
1427.844	0E0
1429.417	0E0
1430.989	0E0
1432.561	0E0
1434.133	0E0
1435.705	0E0
1437.276	0E0
1438.848	0E0
1440.419	0E0
1441.99	0E0
1443.561	0E0
1445.131	0E0
1446.702	0E0
1448.272	0E0
1449.842	0E0
1451.412	0E0
1452.982	0E0
1454.551	0E0
1456.121	0E0
1457.69	0E0
1459.259	0E0
1460.828	0E0
1462.396	0E0
1463.965	0E0
1465.533	0E0
1467.101	0E0
1468.669	0E0
1470.237	0E0
1471.804	0E0
1473.372	0E0
1474.939	0E0
1476.506	0E0
1478.073	0E0
1479.639	0E0
1481.206	0E0
1482.772	0E0
1484.338	0E0
1485.904	0E0
1487.47	0E0
1489.035	0E0
1490.601	0E0
1492.166	0E0
1493.731	0E0
1495.296	0E0
1496.86	0E0
1498.425	0E0
1499.989	0E0
1501.553	0E0
1503.117	0E0
1504.681	0E0
1506.244	0E0
1507.808	0E0
1509.371	0E0
1510.934	0E0
1512.497	0E0
1514.059	21.31E-6
1515.622	1.10433E-4
1517.184	1.7563E-4
1518.746	2.88917E-4
1520.308	3.42403E-4
1521.87	4.11662E-4
1523.431	4.40955E-4
1524.993	5.05792E-4
1526.554	6.05716E-4
1528.115	6.96071E-4
1529.676	7.66356E-4
1531.236	8.26468E-4
1532.797	9.07302E-4
1534.357	8.67218E-4
1535.917	8.05221E-4
1537.477	7.64978E-4
1539.037	7.78761E-4
1540.596	7.93841E-4
1542.155	7.96974E-4
1543.715	7.83547E-4
1545.273	8.14573E-4
1546.832	8.43717E-4
1548.391	8.4275E-4
1549.949	9.05345E-4
1551.508	9.94853E-4
1553.066	9.54348E-4
1554.623	9.21206E-4
1556.181	8.94638E-4
1557.739	9.03536E-4
1559.296	8.78219E-4
1560.853	8.3299E-4
1562.41	8.59316E-4
1563.967	7.79568E-4
1565.523	6.61161E-4
1567.08	5.77847E-4
1568.636	6.47211E-4
1570.192	6.12242E-4
1571.748	5.88453E-4
1573.304	6.0917E-4
1574.859	6.03868E-4
1576.414	5.63996E-4
1577.969	5.41426E-4
1579.524	5.80613E-4
1581.079	5.64957E-4
1582.634	5.62918E-4
1584.188	5.24016E-4
1585.742	4.72612E-4
1587.296	4.61963E-4
1588.85	4.73819E-4
1590.404	5.77022E-4
1591.957	6.73878E-4
1593.51	8.99635E-4
1595.064	9.79515E-4
1596.616	11.0546E-4
1598.169	11.2942E-4
1599.722	12.078E-4
1601.274	10.6485E-4
1602.826	10.2323E-4
1604.378	8.02499E-4
1605.93	7.14494E-4
1607.482	4.68243E-4
1609.033	3.30075E-4
1610.584	1.60057E-4
1612.135	1.56269E-4
1613.686	63.5115E-6
1615.237	30.307E-6
1616.787	7.32467E-6
1618.338	1.56075E-6
1619.888	27.6149E-6
1621.438	0E0
1622.988	5.14813E-6
1624.537	0E0
1626.087	0E0
1627.636	0E0
1629.185	0E0
1630.734	0E0
1632.282	0E0
1633.831	0E0
1635.379	0E0
1636.927	0E0
1638.475	0E0
1640.023	0E0
1641.571	0E0
1643.118	0E0
1644.665	0E0
1646.212	0E0
1647.759	0E0
1649.306	0E0
1650.852	0E0
1652.398	0E0
1653.944	0E0
1655.49	0E0
1657.036	0E0
1658.582	0E0
1660.127	0E0
1661.672	0E0
1663.217	0E0
1664.762	0E0
1666.306	0E0
1667.851	0E0
1669.395	0E0
1670.939	0E0
1672.483	0E0
1674.027	0E0
1675.57	0E0
1677.113	0E0
1678.657	0E0
1680.2	0E0
1681.742	0E0
1683.285	0E0
1684.827	0E0
1686.369	0E0
1687.911	0E0
1689.453	0E0
1690.995	0E0
1692.536	19.4758E-4
1694.078	8.25369E-4
1695.619	22.319E-4
1697.16	36.8812E-4
1698.7	42.4449E-4
1700.241	45.4021E-4
1701.781	58.5237E-4
1703.321	84.8569E-4
1704.861	79.6452E-4
1706.401	1.06618E-2
1707.941	1.1499E-2
1709.48	1.26309E-2
