Data from PS_PSgreenish_00001.txt Node
Date: Fri Apr 03 15:56:23 CEST 2015
User: User
Spectrometer: NQ51A0689
Autoset integration time: false
Trigger mode: 0
Integration Time (sec): 1.000000E0
Scans to average: 1
Nonlinearity correction enabled: false
Boxcar width: 2
Stray light correction enabled: false
XAxis mode: Wavelengths
Stop averaging: false
Storing dark spectrum: false
Number of Pixels in Spectrum: 512
>>>>>Begin Spectral Data<<<<<
899.175	0E0
900.806	0E0
902.437	0E0
904.067	0E0
905.698	0E0
907.328	0E0
908.958	0E0
910.588	0E0
912.218	0E0
913.847	0E0
915.477	0E0
917.106	0E0
918.735	0E0
920.364	0E0
921.993	0E0
923.621	0E0
925.25	0E0
926.878	0E0
928.506	0E0
930.134	0E0
931.762	0E0
933.389	0E0
935.016	0E0
936.644	0E0
938.271	0E0
939.897	0E0
941.524	0E0
943.151	0E0
944.777	0E0
946.403	0E0
948.029	0E0
949.655	0E0
951.28	0E0
952.906	0E0
954.531	0E0
956.156	0E0
957.781	0E0
959.406	0E0
961.03	0E0
962.655	0E0
964.279	0E0
965.903	0E0
967.527	0E0
969.15	0E0
970.774	0E0
972.397	0E0
974.02	0E0
975.643	0E0
977.266	0E0
978.889	0E0
980.511	0E0
982.133	0E0
983.756	0E0
985.378	0E0
986.999	0E0
988.621	77.9331E-6
990.242	1.97233E-4
991.864	2.47435E-4
993.485	3.41346E-4
995.105	4.32455E-4
996.726	5.19791E-4
998.347	5.63599E-4
999.967	7.15093E-4
1001.587	7.50892E-4
1003.207	7.19037E-4
1004.827	7.48675E-4
1006.447	8.44923E-4
1008.066	9.33518E-4
1009.686	10.1287E-4
1011.305	11.3811E-4
1012.924	11.9649E-4
1014.543	12.468E-4
1016.161	12.6161E-4
1017.78	12.6767E-4
1019.398	14.6491E-4
1021.016	14.4417E-4
1022.634	17.3025E-4
1024.252	17.0464E-4
1025.869	19.1664E-4
1027.487	18.5231E-4
1029.104	20.2269E-4
1030.721	18.1218E-4
1032.338	20.0425E-4
1033.954	20.2955E-4
1035.571	21.4289E-4
1037.187	22.7531E-4
1038.803	24.0731E-4
1040.419	24.8118E-4
1042.035	24.7067E-4
1043.651	24.537E-4
1045.266	25.1116E-4
1046.882	24.3015E-4
1048.497	25.3516E-4
1050.112	24.8464E-4
1051.726	25.8555E-4
1053.341	24.9746E-4
1054.955	25.9786E-4
1056.57	25.5987E-4
1058.184	26.9427E-4
1059.797	25.6999E-4
1061.411	25.4987E-4
1063.025	25.9811E-4
1064.638	25.6461E-4
1066.251	25.9458E-4
1067.864	26.3894E-4
1069.477	27.483E-4
1071.09	28.4161E-4
1072.702	27.9324E-4
1074.314	29.2883E-4
1075.927	28.3878E-4
1077.539	28.3098E-4
1079.15	26.8796E-4
1080.762	27.1396E-4
1082.373	25.8695E-4
1083.985	26.8006E-4
1085.596	26.6595E-4
1087.207	26.7603E-4
1088.817	27.2315E-4
1090.428	27.3449E-4
1092.038	27.8134E-4
1093.648	27.7232E-4
1095.258	28.2072E-4
1096.868	28.5749E-4
1098.478	28.3663E-4
1100.087	28.5191E-4
1101.697	28.8522E-4
1103.306	29.414E-4
1104.915	29.4688E-4
1106.523	28.9955E-4
1108.132	29.2703E-4
1109.74	29.5965E-4
1111.349	30.432E-4
1112.957	30.331E-4
1114.565	31.0294E-4
1116.172	31.4897E-4
1117.78	32.4826E-4
1119.387	32.9535E-4
1120.994	34.3238E-4
1122.601	37.0865E-4
1124.208	38.8138E-4
1125.815	40.2109E-4
1127.421	43.2665E-4
1129.028	46.8474E-4
1130.634	50.8878E-4
1132.24	56.0183E-4
1133.846	63.6419E-4
1135.451	71.8936E-4
1137.057	81.881E-4
1138.662	91.4243E-4
1140.267	1.02104E-2
1141.872	1.10758E-2
1143.476	1.1716E-2
1145.081	1.1909E-2
1146.685	1.19233E-2
1148.29	1.14891E-2
1149.894	1.07954E-2
1151.497	97.6873E-4
1153.101	86.6339E-4
1154.704	73.6066E-4
1156.308	59.8944E-4
1157.911	46.9391E-4
1159.514	35.493E-4
1161.117	25.5735E-4
1162.719	16.91E-4
1164.322	10.2463E-4
1165.924	3.68819E-4
1167.526	0E0
1169.128	0E0
1170.729	0E0
1172.331	0E0
1173.932	0E0
1175.533	0E0
1177.134	0E0
1178.735	0E0
1180.336	0E0
1181.936	0E0
1183.537	0E0
1185.137	0E0
1186.737	0E0
1188.336	0E0
1189.936	0E0
1191.535	0E0
1193.135	0E0
1194.734	4.70005E-4
1196.332	8.47819E-4
1197.931	14.173E-4
1199.53	17.7156E-4
1201.128	22.6562E-4
1202.726	26.337E-4
1204.324	31.6191E-4
1205.922	33.6907E-4
1207.519	37.6171E-4
1209.117	39.6333E-4
1210.714	41.4764E-4
1212.311	42.2121E-4
1213.908	42.6734E-4
1215.505	42.1288E-4
1217.101	41.6017E-4
1218.698	40.3366E-4
1220.294	39.4754E-4
1221.89	37.4553E-4
1223.486	36.34E-4
1225.081	34.0062E-4
1226.677	32.1069E-4
1228.272	29.4866E-4
1229.867	28.8306E-4
1231.462	25.967E-4
1233.057	23.7823E-4
1234.651	21.8738E-4
1236.246	20.5496E-4
1237.84	18.7062E-4
1239.434	17.5869E-4
1241.028	16.2055E-4
1242.622	15.6799E-4
1244.215	14.4032E-4
1245.809	12.4957E-4
1247.402	11.5217E-4
1248.995	11.3005E-4
1250.587	9.6418E-4
1252.18	8.75316E-4
1253.773	8.58219E-4
1255.365	8.41338E-4
1256.957	7.68847E-4
1258.549	7.96595E-4
1260.141	7.91876E-4
1261.732	7.47687E-4
1263.323	7.57296E-4
1264.915	7.68921E-4
1266.506	7.25482E-4
1268.096	7.40701E-4
1269.687	7.21323E-4
1271.278	5.9148E-4
1272.868	5.49811E-4
1274.458	5.56375E-4
1276.048	5.18296E-4
1277.638	5.36534E-4
1279.227	4.92467E-4
1280.817	4.50509E-4
1282.406	3.22602E-4
1283.995	3.34107E-4
1285.584	3.32563E-4
1287.172	4.14968E-4
1288.761	4.62658E-4
1290.349	5.6634E-4
1291.937	4.88583E-4
1293.525	5.09926E-4
1295.113	4.88363E-4
1296.701	4.7795E-4
1298.288	4.53903E-4
1299.875	4.66552E-4
1301.462	4.82955E-4
1303.049	5.33101E-4
1304.636	4.81448E-4
1306.223	4.41043E-4
1307.809	4.52179E-4
1309.395	3.38533E-4
1310.981	2.77547E-4
1312.567	2.67156E-4
1314.153	2.95894E-4
1315.738	2.37596E-4
1317.323	2.39087E-4
1318.908	2.01541E-4
1320.493	2.37703E-4
1322.078	1.67161E-4
1323.663	1.49051E-4
1325.247	1.35537E-4
1326.831	26.1723E-6
1328.415	0E0
1329.999	0E0
1331.583	0E0
1333.166	0E0
1334.749	0E0
1336.333	0E0
1337.915	0E0
1339.498	0E0
1341.081	0E0
1342.663	0E0
1344.245	0E0
1345.827	0E0
1347.409	0E0
1348.991	0E0
1350.572	0E0
1352.154	0E0
1353.735	0E0
1355.316	0E0
1356.897	0E0
1358.477	0E0
1360.058	0E0
1361.638	0E0
1363.218	0E0
1364.798	0E0
1366.377	0E0
1367.957	0E0
1369.536	0E0
1371.115	0E0
1372.694	0E0
1374.273	0E0
1375.852	0E0
1377.43	0E0
1379.008	0E0
1380.587	0E0
1382.164	0E0
1383.742	0E0
1385.32	0E0
1386.897	0E0
1388.474	0E0
1390.051	0E0
1391.628	0E0
1393.205	0E0
1394.781	0E0
1396.357	0E0
1397.933	0E0
1399.509	0E0
1401.085	0E0
1402.66	0E0
1404.236	0E0
1405.811	0E0
1407.386	0E0
1408.961	0E0
1410.535	0E0
1412.11	0E0
1413.684	0E0
1415.258	0E0
1416.832	0E0
1418.406	0E0
1419.979	0E0
1421.553	0E0
1423.126	0E0
1424.699	0E0
1426.272	0E0
1427.844	0E0
1429.417	0E0
1430.989	0E0
1432.561	0E0
1434.133	0E0
1435.705	0E0
1437.276	0E0
1438.848	0E0
1440.419	0E0
1441.99	0E0
1443.561	0E0
1445.131	0E0
1446.702	0E0
1448.272	0E0
1449.842	0E0
1451.412	0E0
1452.982	0E0
1454.551	0E0
1456.121	0E0
1457.69	0E0
1459.259	0E0
1460.828	0E0
1462.396	0E0
1463.965	0E0
1465.533	0E0
1467.101	0E0
1468.669	0E0
1470.237	0E0
1471.804	0E0
1473.372	0E0
1474.939	0E0
1476.506	0E0
1478.073	0E0
1479.639	0E0
1481.206	0E0
1482.772	0E0
1484.338	0E0
1485.904	0E0
1487.47	0E0
1489.035	0E0
1490.601	0E0
1492.166	0E0
1493.731	0E0
1495.296	0E0
1496.86	0E0
1498.425	0E0
1499.989	0E0
1501.553	0E0
1503.117	0E0
1504.681	0E0
1506.244	0E0
1507.808	0E0
1509.371	0E0
1510.934	0E0
1512.497	0E0
1514.059	0E0
1515.622	0E0
1517.184	0E0
1518.746	0E0
1520.308	0E0
1521.87	0E0
1523.431	0E0
1524.993	0E0
1526.554	0E0
1528.115	0E0
1529.676	0E0
1531.236	63.6152E-6
1532.797	1.77858E-4
1534.357	1.75774E-4
1535.917	3.25873E-4
1537.477	3.60671E-4
1539.037	4.35215E-4
1540.596	4.77954E-4
1542.155	5.13424E-4
1543.715	5.3789E-4
1545.273	5.74894E-4
1546.832	6.93895E-4
1548.391	7.50098E-4
1549.949	8.38888E-4
1551.508	9.47761E-4
1553.066	9.54833E-4
1554.623	9.39305E-4
1556.181	10.336E-4
1557.739	11.5149E-4
1559.296	11.7228E-4
1560.853	12.5187E-4
1562.41	13.7315E-4
1563.967	13.6652E-4
1565.523	13.8758E-4
1567.08	14.9218E-4
1568.636	16.6054E-4
1570.192	17.0787E-4
1571.748	18.1975E-4
1573.304	19.0823E-4
1574.859	19.3481E-4
1576.414	19.5365E-4
1577.969	20.841E-4
1579.524	21.6873E-4
1581.079	21.9379E-4
1582.634	23.0123E-4
1584.188	23.9372E-4
1585.742	24.2878E-4
1587.296	24.9304E-4
1588.85	26.887E-4
1590.404	29.0559E-4
1591.957	29.6926E-4
1593.51	31.4848E-4
1595.064	32.6987E-4
1596.616	33.193E-4
1598.169	32.9517E-4
1599.722	34.3414E-4
1601.274	34.109E-4
1602.826	34.8759E-4
1604.378	34.7803E-4
1605.93	36.0385E-4
1607.482	36.3504E-4
1609.033	38.0904E-4
1610.584	38.1692E-4
1612.135	41.0514E-4
1613.686	42.5788E-4
1615.237	45.4879E-4
1616.787	47.5073E-4
1618.338	51.4652E-4
1619.888	54.7781E-4
1621.438	59.6953E-4
1622.988	65.0323E-4
1624.537	72.1228E-4
1626.087	80.5882E-4
1627.636	88.8726E-4
1629.185	98.475E-4
1630.734	1.06822E-2
1632.282	1.16459E-2
1633.831	1.25816E-2
1635.379	1.34856E-2
1636.927	1.40637E-2
1638.475	1.46018E-2
1640.023	1.47204E-2
1641.571	1.45941E-2
1643.118	1.44686E-2
1644.665	1.43689E-2
1646.212	1.42194E-2
1647.759	1.38918E-2
1649.306	1.32E-2
1650.852	1.23525E-2
1652.398	1.11593E-2
1653.944	1.02225E-2
1655.49	93.6329E-4
1657.036	92.0964E-4
1658.582	90.2251E-4
1660.127	97.6129E-4
1661.672	1.00694E-2
1663.217	1.10892E-2
1664.762	1.17474E-2
1666.306	1.26773E-2
1667.851	1.28722E-2
1669.395	1.31902E-2
1670.939	1.30882E-2
1672.483	1.29921E-2
1674.027	1.21391E-2
1675.57	1.1097E-2
1677.113	99.3217E-4
1678.657	81.1177E-4
1680.2	63.0026E-4
1681.742	40.0384E-4
1683.285	21.8184E-4
1684.827	0E0
1686.369	0E0
1687.911	0E0
1689.453	0E0
1690.995	0E0
1692.536	0E0
1694.078	0E0
1695.619	0E0
1697.16	0E0
1698.7	0E0
1700.241	0E0
1701.781	0E0
1703.321	0E0
1704.861	0E0
1706.401	0E0
1707.941	0E0
1709.48	0E0
