Data from PS_PStransparent_00000.txt Node
Date: Fri Apr 03 15:56:23 CEST 2015
User: User
Spectrometer: NQ51A0689
Autoset integration time: false
Trigger mode: 0
Integration Time (sec): 1.000000E0
Scans to average: 1
Nonlinearity correction enabled: false
Boxcar width: 2
Stray light correction enabled: false
XAxis mode: Wavelengths
Stop averaging: false
Storing dark spectrum: false
Number of Pixels in Spectrum: 512
>>>>>Begin Spectral Data<<<<<
899.175	0E0
900.806	0E0
902.437	0E0
904.067	0E0
905.698	0E0
907.328	0E0
908.958	0E0
910.588	0E0
912.218	0E0
913.847	0E0
915.477	0E0
917.106	0E0
918.735	0E0
920.364	0E0
921.993	0E0
923.621	0E0
925.25	0E0
926.878	0E0
928.506	0E0
930.134	0E0
931.762	0E0
933.389	0E0
935.016	0E0
936.644	0E0
938.271	0E0
939.897	0E0
941.524	0E0
943.151	0E0
944.777	0E0
946.403	0E0
948.029	0E0
949.655	0E0
951.28	0E0
952.906	0E0
954.531	0E0
956.156	0E0
957.781	0E0
959.406	0E0
961.03	0E0
962.655	0E0
964.279	0E0
965.903	0E0
967.527	0E0
969.15	0E0
970.774	0E0
972.397	0E0
974.02	0E0
975.643	0E0
977.266	0E0
978.889	0E0
980.511	0E0
982.133	0E0
983.756	0E0
985.378	0E0
986.999	0E0
988.621	0E0
990.242	0E0
991.864	0E0
993.485	0E0
995.105	0E0
996.726	0E0
998.347	0E0
999.967	0E0
1001.587	0E0
1003.207	0E0
1004.827	0E0
1006.447	0E0
1008.066	0E0
1009.686	0E0
1011.305	0E0
1012.924	0E0
1014.543	0E0
1016.161	0E0
1017.78	0E0
1019.398	0E0
1021.016	0E0
1022.634	1.35194E-4
1024.252	15.6126E-6
1025.869	1.97392E-4
1027.487	1.24105E-4
1029.104	2.28864E-4
1030.721	1.3591E-4
1032.338	2.76093E-4
1033.954	3.6998E-4
1035.571	3.40814E-4
1037.187	5.28463E-4
1038.803	4.83364E-4
1040.419	5.52963E-4
1042.035	4.87698E-4
1043.651	5.84491E-4
1045.266	5.15334E-4
1046.882	5.39764E-4
1048.497	5.59217E-4
1050.112	4.99488E-4
1051.726	5.31476E-4
1053.341	5.16419E-4
1054.955	5.81729E-4
1056.57	5.24111E-4
1058.184	5.38141E-4
1059.797	5.3515E-4
1061.411	4.08263E-4
1063.025	3.59219E-4
1064.638	3.73077E-4
1066.251	4.71368E-4
1067.864	3.85279E-4
1069.477	4.9887E-4
1071.09	5.1772E-4
1072.702	4.47756E-4
1074.314	5.18744E-4
1075.927	4.76195E-4
1077.539	5.05688E-4
1079.15	3.50148E-4
1080.762	4.73779E-4
1082.373	2.56692E-4
1083.985	3.53485E-4
1085.596	2.34007E-4
1087.207	3.47165E-4
1088.817	2.61118E-4
1090.428	4.08118E-4
1092.038	4.35529E-4
1093.648	5.42117E-4
1095.258	6.7454E-4
1096.868	7.57096E-4
1098.478	6.82416E-4
1100.087	6.73091E-4
1101.697	7.11249E-4
1103.306	7.26532E-4
1104.915	7.24954E-4
1106.523	9.05566E-4
1108.132	10.4593E-4
1109.74	11.4713E-4
1111.349	12.6241E-4
1112.957	14.1021E-4
1114.565	15.4665E-4
1116.172	17.0254E-4
1117.78	19.5944E-4
1119.387	21.9699E-4
1120.994	25.2192E-4
1122.601	29.8311E-4
1124.208	33.6778E-4
1125.815	37.7027E-4
1127.421	44.0762E-4
1129.028	50.7818E-4
1130.634	57.7986E-4
1132.24	67.5494E-4
1133.846	79.1433E-4
1135.451	91.1989E-4
1137.057	1.04138E-2
1138.662	1.15592E-2
1140.267	1.2681E-2
1141.872	1.35582E-2
1143.476	1.40606E-2
1145.081	1.43493E-2
1146.685	1.43187E-2
1148.29	1.40894E-2
1149.894	1.3456E-2
1151.497	1.27377E-2
1153.101	1.16435E-2
1154.704	1.05271E-2
1156.308	90.5643E-4
1157.911	77.7122E-4
1159.514	64.8045E-4
1161.117	54.1104E-4
1162.719	45.1887E-4
1164.322	38.0729E-4
1165.924	31.3738E-4
1167.526	26.418E-4
1169.128	22.9617E-4
1170.729	18.0817E-4
1172.331	15.6339E-4
1173.932	13.409E-4
1175.533	11.6733E-4
1177.134	8.58421E-4
1178.735	8.64393E-4
1180.336	6.80133E-4
1181.936	6.97014E-4
1183.537	6.70132E-4
1185.137	8.921E-4
1186.737	10.807E-4
1188.336	14.6189E-4
1189.936	18.6475E-4
1191.535	22.8406E-4
1193.135	27.034E-4
1194.734	30.5844E-4
1196.332	34.3947E-4
1197.931	37.5008E-4
1199.53	40.4836E-4
1201.128	44.455E-4
1202.726	48.1512E-4
1204.324	51.5222E-4
1205.922	53.6019E-4
1207.519	55.73E-4
1209.117	56.7352E-4
1210.714	57.3612E-4
1212.311	55.6512E-4
1213.908	55.1939E-4
1215.505	53.8793E-4
1217.101	50.778E-4
1218.698	47.5178E-4
1220.294	45.4935E-4
1221.89	42.0978E-4
1223.486	39.3366E-4
1225.081	36.5465E-4
1226.677	33.9211E-4
1228.272	31.1808E-4
1229.867	28.7804E-4
1231.462	26.0395E-4
1233.057	22.823E-4
1234.651	20.7107E-4
1236.246	18.7897E-4
1237.84	16.5487E-4
1239.434	14.9133E-4
1241.028	14.1267E-4
1242.622	12.6203E-4
1244.215	10.7929E-4
1245.809	9.56533E-4
1247.402	8.2528E-4
1248.995	7.31115E-4
1250.587	5.6969E-4
1252.18	5.02233E-4
1253.773	3.86912E-4
1255.365	3.3149E-4
1256.957	2.25716E-4
1258.549	2.36182E-4
1260.141	1.42331E-4
1261.732	1.3897E-4
1263.323	67.2125E-6
1264.915	75.9838E-6
1266.506	16.3611E-6
1268.096	7.53905E-6
1269.687	0E0
1271.278	0E0
1272.868	0E0
1274.458	0E0
1276.048	0E0
1277.638	0E0
1279.227	0E0
1280.817	0E0
1282.406	0E0
1283.995	0E0
1285.584	0E0
1287.172	0E0
1288.761	0E0
1290.349	0E0
1291.937	0E0
1293.525	0E0
1295.113	0E0
1296.701	0E0
1298.288	0E0
1299.875	0E0
1301.462	0E0
1303.049	0E0
1304.636	0E0
1306.223	0E0
1307.809	0E0
1309.395	0E0
1310.981	0E0
1312.567	0E0
1314.153	0E0
1315.738	0E0
1317.323	0E0
1318.908	0E0
1320.493	0E0
1322.078	0E0
1323.663	0E0
1325.247	0E0
1326.831	0E0
1328.415	0E0
1329.999	0E0
1331.583	0E0
1333.166	0E0
1334.749	0E0
1336.333	0E0
1337.915	0E0
1339.498	0E0
1341.081	0E0
1342.663	0E0
1344.245	0E0
1345.827	0E0
1347.409	0E0
1348.991	0E0
1350.572	0E0
1352.154	0E0
1353.735	0E0
1355.316	0E0
1356.897	0E0
1358.477	0E0
1360.058	0E0
1361.638	0E0
1363.218	0E0
1364.798	0E0
1366.377	0E0
1367.957	0E0
1369.536	0E0
1371.115	0E0
1372.694	0E0
1374.273	0E0
1375.852	0E0
1377.43	0E0
1379.008	0E0
1380.587	0E0
1382.164	0E0
1383.742	0E0
1385.32	0E0
1386.897	0E0
1388.474	0E0
1390.051	0E0
1391.628	0E0
1393.205	0E0
1394.781	0E0
1396.357	0E0
1397.933	0E0
1399.509	0E0
1401.085	0E0
1402.66	0E0
1404.236	0E0
1405.811	0E0
1407.386	0E0
1408.961	0E0
1410.535	0E0
1412.11	0E0
1413.684	2.17734E-4
1415.258	3.08134E-4
1416.832	3.26012E-4
1418.406	2.48969E-4
1419.979	86.9016E-6
1421.553	0E0
1423.126	0E0
1424.699	0E0
1426.272	0E0
1427.844	0E0
1429.417	0E0
1430.989	0E0
1432.561	0E0
1434.133	0E0
1435.705	0E0
1437.276	0E0
1438.848	0E0
1440.419	0E0
1441.99	0E0
1443.561	0E0
1445.131	0E0
1446.702	0E0
1448.272	0E0
1449.842	0E0
1451.412	0E0
1452.982	0E0
1454.551	0E0
1456.121	0E0
1457.69	0E0
1459.259	0E0
1460.828	0E0
1462.396	0E0
1463.965	0E0
1465.533	0E0
1467.101	0E0
1468.669	0E0
1470.237	0E0
1471.804	0E0
1473.372	0E0
1474.939	0E0
1476.506	0E0
1478.073	0E0
1479.639	0E0
1481.206	0E0
1482.772	0E0
1484.338	0E0
1485.904	0E0
1487.47	0E0
1489.035	0E0
1490.601	0E0
1492.166	0E0
1493.731	0E0
1495.296	0E0
1496.86	0E0
1498.425	0E0
1499.989	0E0
1501.553	0E0
1503.117	0E0
1504.681	0E0
1506.244	0E0
1507.808	0E0
1509.371	0E0
1510.934	0E0
1512.497	0E0
1514.059	0E0
1515.622	0E0
1517.184	0E0
1518.746	0E0
1520.308	0E0
1521.87	0E0
1523.431	0E0
1524.993	0E0
1526.554	0E0
1528.115	0E0
1529.676	0E0
1531.236	0E0
1532.797	0E0
1534.357	0E0
1535.917	0E0
1537.477	0E0
1539.037	0E0
1540.596	0E0
1542.155	0E0
1543.715	0E0
1545.273	0E0
1546.832	0E0
1548.391	0E0
1549.949	0E0
1551.508	0E0
1553.066	0E0
1554.623	0E0
1556.181	0E0
1557.739	0E0
1559.296	0E0
1560.853	0E0
1562.41	0E0
1563.967	0E0
1565.523	0E0
1567.08	0E0
1568.636	0E0
1570.192	0E0
1571.748	0E0
1573.304	0E0
1574.859	0E0
1576.414	0E0
1577.969	0E0
1579.524	0E0
1581.079	0E0
1582.634	0E0
1584.188	0E0
1585.742	0E0
1587.296	0E0
1588.85	0E0
1590.404	0E0
1591.957	0E0
1593.51	0E0
1595.064	0E0
1596.616	0E0
1598.169	0E0
1599.722	0E0
1601.274	0E0
1602.826	0E0
1604.378	0E0
1605.93	0E0
1607.482	0E0
1609.033	0E0
1610.584	0E0
1612.135	0E0
1613.686	0E0
1615.237	0E0
1616.787	0E0
1618.338	0E0
1619.888	0E0
1621.438	0E0
1622.988	0E0
1624.537	5.49412E-4
1626.087	16.5939E-4
1627.636	25.9943E-4
1629.185	36.0383E-4
1630.734	43.0684E-4
1632.282	51.7458E-4
1633.831	57.4955E-4
1635.379	62.8608E-4
1636.927	66.6142E-4
1638.475	70.2108E-4
1640.023	70.878E-4
1641.571	71.0564E-4
1643.118	70.218E-4
1644.665	70.6307E-4
1646.212	70.6056E-4
1647.759	68.6193E-4
1649.306	65.8156E-4
1650.852	61.6781E-4
1652.398	55.4857E-4
1653.944	49.8853E-4
1655.49	46.1768E-4
1657.036	47.0682E-4
1658.582	50.0843E-4
1660.127	56.1262E-4
1661.672	59.5769E-4
1663.217	64.2464E-4
1664.762	64.3882E-4
1666.306	62.7655E-4
1667.851	60.9177E-4
1669.395	56.3882E-4
1670.939	55.8082E-4
1672.483	52.6978E-4
1674.027	55.116E-4
1675.57	47.4813E-4
1677.113	48.3647E-4
1678.657	45.4021E-4
1680.2	46.6187E-4
1681.742	40.0512E-4
1683.285	42.2149E-4
1684.827	35.8579E-4
1686.369	42.4513E-4
1687.911	30.0035E-4
1689.453	40.9617E-4
1690.995	32.4419E-4
1692.536	59.8655E-4
1694.078	54.7974E-4
1695.619	71.807E-4
1697.16	66.3673E-4
1698.7	87.03E-4
1700.241	77.8403E-4
1701.781	89.2606E-4
1703.321	99.381E-4
1704.861	99.1664E-4
1706.401	83.5595E-4
1707.941	76.4259E-4
1709.48	60.262E-4
