Data from PS_Units14_00001.txt Node
Date: Fri Apr 03 15:56:23 CEST 2015
User: User
Spectrometer: NQ51A0689
Autoset integration time: false
Trigger mode: 0
Integration Time (sec): 1.000000E0
Scans to average: 1
Nonlinearity correction enabled: false
Boxcar width: 2
Stray light correction enabled: false
XAxis mode: Wavelengths
Stop averaging: false
Storing dark spectrum: false
Number of Pixels in Spectrum: 512
>>>>>Begin Spectral Data<<<<<
899.175	0E0
900.806	0E0
902.437	0E0
904.067	0E0
905.698	0E0
907.328	0E0
908.958	0E0
910.588	0E0
912.218	0E0
913.847	0E0
915.477	0E0
917.106	0E0
918.735	0E0
920.364	0E0
921.993	0E0
923.621	0E0
925.25	0E0
926.878	0E0
928.506	0E0
930.134	0E0
931.762	0E0
933.389	0E0
935.016	0E0
936.644	0E0
938.271	0E0
939.897	0E0
941.524	0E0
943.151	0E0
944.777	0E0
946.403	0E0
948.029	0E0
949.655	0E0
951.28	0E0
952.906	0E0
954.531	0E0
956.156	0E0
957.781	0E0
959.406	0E0
961.03	0E0
962.655	0E0
964.279	0E0
965.903	0E0
967.527	0E0
969.15	0E0
970.774	0E0
972.397	0E0
974.02	0E0
975.643	0E0
977.266	0E0
978.889	0E0
980.511	0E0
982.133	0E0
983.756	0E0
985.378	0E0
986.999	0E0
988.621	0E0
990.242	0E0
991.864	0E0
993.485	0E0
995.105	0E0
996.726	0E0
998.347	0E0
999.967	0E0
1001.587	0E0
1003.207	0E0
1004.827	0E0
1006.447	0E0
1008.066	0E0
1009.686	0E0
1011.305	0E0
1012.924	0E0
1014.543	0E0
1016.161	0E0
1017.78	0E0
1019.398	0E0
1021.016	0E0
1022.634	0E0
1024.252	0E0
1025.869	0E0
1027.487	0E0
1029.104	0E0
1030.721	0E0
1032.338	0E0
1033.954	0E0
1035.571	0E0
1037.187	0E0
1038.803	0E0
1040.419	0E0
1042.035	0E0
1043.651	0E0
1045.266	0E0
1046.882	0E0
1048.497	0E0
1050.112	0E0
1051.726	0E0
1053.341	0E0
1054.955	0E0
1056.57	0E0
1058.184	0E0
1059.797	0E0
1061.411	0E0
1063.025	0E0
1064.638	0E0
1066.251	0E0
1067.864	0E0
1069.477	0E0
1071.09	0E0
1072.702	0E0
1074.314	0E0
1075.927	0E0
1077.539	0E0
1079.15	0E0
1080.762	0E0
1082.373	0E0
1083.985	0E0
1085.596	0E0
1087.207	0E0
1088.817	0E0
1090.428	0E0
1092.038	0E0
1093.648	0E0
1095.258	0E0
1096.868	0E0
1098.478	0E0
1100.087	0E0
1101.697	0E0
1103.306	0E0
1104.915	0E0
1106.523	0E0
1108.132	0E0
1109.74	0E0
1111.349	0E0
1112.957	0E0
1114.565	0E0
1116.172	0E0
1117.78	0E0
1119.387	26.0146E-4
1120.994	79.4143E-4
1122.601	1.36561E-2
1124.208	2.00386E-2
1125.815	2.72454E-2
1127.421	3.57549E-2
1129.028	4.52101E-2
1130.634	5.57812E-2
1132.24	6.69989E-2
1133.846	7.87879E-2
1135.451	9.03006E-2
1137.057	10.1268E-2
1138.662	11.1024E-2
1140.267	11.9322E-2
1141.872	12.5438E-2
1143.476	12.9293E-2
1145.081	13.0664E-2
1146.685	12.9936E-2
1148.29	12.7107E-2
1149.894	12.2277E-2
1151.497	11.5799E-2
1153.101	10.8113E-2
1154.704	9.92106E-2
1156.308	9.00556E-2
1157.911	8.12874E-2
1159.514	7.36718E-2
1161.117	6.72891E-2
1162.719	6.2545E-2
1164.322	5.89989E-2
1165.924	5.67557E-2
1167.526	5.52555E-2
1169.128	5.42838E-2
1170.729	5.3617E-2
1172.331	5.31121E-2
1173.932	5.2436E-2
1175.533	5.16565E-2
1177.134	5.07522E-2
1178.735	5.0199E-2
1180.336	5.01517E-2
1181.936	5.11676E-2
1183.537	5.30287E-2
1185.137	5.62761E-2
1186.737	6.01432E-2
1188.336	6.45023E-2
1189.936	6.89039E-2
1191.535	7.33792E-2
1193.135	7.73454E-2
1194.734	8.08808E-2
1196.332	8.40474E-2
1197.931	8.67477E-2
1199.53	8.88909E-2
1201.128	9.06081E-2
1202.726	9.16585E-2
1204.324	9.21104E-2
1205.922	9.16645E-2
1207.519	9.07545E-2
1209.117	8.89634E-2
1210.714	8.68242E-2
1212.311	8.40471E-2
1213.908	8.10405E-2
1215.505	7.74866E-2
1217.101	7.38083E-2
1218.698	6.97414E-2
1220.294	6.55462E-2
1221.89	6.09984E-2
1223.486	5.64372E-2
1225.081	5.15974E-2
1226.677	4.67774E-2
1228.272	4.17541E-2
1229.867	3.7016E-2
1231.462	3.19378E-2
1233.057	2.70984E-2
1234.651	2.22396E-2
1236.246	1.76522E-2
1237.84	1.31408E-2
1239.434	90.6663E-4
1241.028	51.781E-4
1242.622	16.6408E-4
1244.215	0E0
1245.809	0E0
1247.402	0E0
1248.995	0E0
1250.587	0E0
1252.18	0E0
1253.773	0E0
1255.365	0E0
1256.957	0E0
1258.549	0E0
1260.141	0E0
1261.732	0E0
1263.323	0E0
1264.915	0E0
1266.506	0E0
1268.096	0E0
1269.687	0E0
1271.278	0E0
1272.868	0E0
1274.458	0E0
1276.048	0E0
1277.638	0E0
1279.227	0E0
1280.817	0E0
1282.406	0E0
1283.995	0E0
1285.584	0E0
1287.172	0E0
1288.761	0E0
1290.349	0E0
1291.937	0E0
1293.525	0E0
1295.113	0E0
1296.701	0E0
1298.288	0E0
1299.875	0E0
1301.462	0E0
1303.049	0E0
1304.636	0E0
1306.223	0E0
1307.809	0E0
1309.395	0E0
1310.981	0E0
1312.567	0E0
1314.153	0E0
1315.738	0E0
1317.323	0E0
1318.908	0E0
1320.493	0E0
1322.078	0E0
1323.663	0E0
1325.247	0E0
1326.831	0E0
1328.415	0E0
1329.999	0E0
1331.583	0E0
1333.166	0E0
1334.749	0E0
1336.333	0E0
1337.915	0E0
1339.498	0E0
1341.081	0E0
1342.663	0E0
1344.245	0E0
1345.827	0E0
1347.409	0E0
1348.991	0E0
1350.572	0E0
1352.154	0E0
1353.735	0E0
1355.316	0E0
1356.897	0E0
1358.477	0E0
1360.058	0E0
1361.638	0E0
1363.218	0E0
1364.798	0E0
1366.377	0E0
1367.957	0E0
1369.536	0E0
1371.115	0E0
1372.694	0E0
1374.273	1.26883E-4
1375.852	31.7635E-4
1377.43	58.3264E-4
1379.008	82.9548E-4
1380.587	1.07038E-2
1382.164	1.29534E-2
1383.742	1.51563E-2
1385.32	1.72492E-2
1386.897	1.9078E-2
1388.474	2.0577E-2
1390.051	2.19113E-2
1391.628	2.28669E-2
1393.205	2.37076E-2
1394.781	2.45952E-2
1396.357	2.5677E-2
1397.933	2.71395E-2
1399.509	2.91267E-2
1401.085	3.17676E-2
1402.66	3.48616E-2
1404.236	3.8121E-2
1405.811	4.146E-2
1407.386	4.45046E-2
1408.961	4.67912E-2
1410.535	4.8288E-2
1412.11	4.89788E-2
1413.684	4.88544E-2
1415.258	4.79136E-2
1416.832	4.63193E-2
1418.406	4.42982E-2
1419.979	4.20005E-2
1421.553	3.94597E-2
1423.126	3.69721E-2
1424.699	3.46676E-2
1426.272	3.25475E-2
1427.844	3.05224E-2
1429.417	2.88397E-2
1430.989	2.72312E-2
1432.561	2.57729E-2
1434.133	2.43759E-2
1435.705	2.29806E-2
1437.276	2.13953E-2
1438.848	1.9832E-2
1440.419	1.82077E-2
1441.99	1.64455E-2
1443.561	1.47199E-2
1445.131	1.2963E-2
1446.702	1.1049E-2
1448.272	90.2157E-4
1449.842	70.304E-4
1451.412	49.5349E-4
1452.982	29.6779E-4
1454.551	10.6129E-4
1456.121	0E0
1457.69	0E0
1459.259	0E0
1460.828	0E0
1462.396	0E0
1463.965	0E0
1465.533	0E0
1467.101	0E0
1468.669	0E0
1470.237	0E0
1471.804	0E0
1473.372	0E0
1474.939	0E0
1476.506	0E0
1478.073	0E0
1479.639	0E0
1481.206	0E0
1482.772	0E0
1484.338	0E0
1485.904	0E0
1487.47	0E0
1489.035	0E0
1490.601	0E0
1492.166	0E0
1493.731	0E0
1495.296	0E0
1496.86	0E0
1498.425	0E0
1499.989	0E0
1501.553	0E0
1503.117	0E0
1504.681	0E0
1506.244	0E0
1507.808	0E0
1509.371	0E0
1510.934	0E0
1512.497	0E0
1514.059	0E0
1515.622	0E0
1517.184	0E0
1518.746	0E0
1520.308	0E0
1521.87	0E0
1523.431	0E0
1524.993	0E0
1526.554	0E0
1528.115	0E0
1529.676	0E0
1531.236	0E0
1532.797	0E0
1534.357	0E0
1535.917	0E0
1537.477	0E0
1539.037	0E0
1540.596	0E0
1542.155	0E0
1543.715	0E0
1545.273	0E0
1546.832	0E0
1548.391	0E0
1549.949	0E0
1551.508	0E0
1553.066	0E0
1554.623	0E0
1556.181	0E0
1557.739	0E0
1559.296	0E0
1560.853	0E0
1562.41	0E0
1563.967	0E0
1565.523	0E0
1567.08	0E0
1568.636	0E0
1570.192	0E0
1571.748	0E0
1573.304	0E0
1574.859	0E0
1576.414	0E0
1577.969	0E0
1579.524	0E0
1581.079	0E0
1582.634	0E0
1584.188	0E0
1585.742	0E0
1587.296	0E0
1588.85	0E0
1590.404	0E0
1591.957	0E0
1593.51	0E0
1595.064	0E0
1596.616	0E0
1598.169	0E0
1599.722	0E0
1601.274	0E0
1602.826	0E0
1604.378	0E0
1605.93	0E0
1607.482	0E0
1609.033	0E0
1610.584	0E0
1612.135	0E0
1613.686	0E0
1615.237	0E0
1616.787	0E0
1618.338	0E0
1619.888	0E0
1621.438	0E0
1622.988	79.73E-4
1624.537	1.76084E-2
1626.087	2.74075E-2
1627.636	3.6761E-2
1629.185	4.55018E-2
1630.734	5.37419E-2
1632.282	6.11402E-2
1633.831	6.75935E-2
1635.379	7.30219E-2
1636.927	7.69076E-2
1638.475	7.88379E-2
1640.023	7.89126E-2
1641.571	7.78995E-2
1643.118	7.68263E-2
1644.665	7.55431E-2
1646.212	7.4253E-2
1647.759	7.23418E-2
1649.306	6.9956E-2
1650.852	6.68473E-2
1652.398	6.43604E-2
1653.944	6.35835E-2
1655.49	6.51858E-2
1657.036	6.94768E-2
1658.582	7.53554E-2
1660.127	8.21836E-2
1661.672	8.84228E-2
1663.217	9.44488E-2
1664.762	9.92274E-2
1666.306	10.2607E-2
1667.851	10.4949E-2
1669.395	10.6162E-2
1670.939	10.6263E-2
1672.483	10.5034E-2
1674.027	10.3104E-2
1675.57	9.9276E-2
1677.113	9.48539E-2
1678.657	8.96187E-2
1680.2	8.31406E-2
1681.742	7.63557E-2
1683.285	6.95899E-2
1684.827	6.23814E-2
1686.369	5.59687E-2
1687.911	4.73563E-2
1689.453	4.0363E-2
1690.995	3.24519E-2
1692.536	2.5395E-2
1694.078	1.60486E-2
1695.619	97.3772E-4
1697.16	6.25757E-4
1698.7	0E0
1700.241	0E0
1701.781	0E0
1703.321	0E0
1704.861	0E0
1706.401	0E0
1707.941	0E0
1709.48	0E0
